# Phonon frequencies in cm-1
    1           0.000           0.000           0.000         191.618         191.618         191.618         191.618         191.618         191.618         323.317         323.317         323.317
    2           2.630           2.630           5.147         191.588         191.588         191.621         191.621         191.628         191.628         323.271         323.271         323.278
    3           5.260           5.260          10.292         191.501         191.501         191.633         191.633         191.661         191.661         323.135         323.135         323.162
    4           7.890           7.890          15.435         191.355         191.355         191.652         191.652         191.715         191.715         322.909         322.909         322.968
    5          10.520          10.520          20.573         191.150         191.150         191.678         191.678         191.791         191.791         322.592         322.592         322.696
    6          13.150          13.150          25.707         190.888         190.888         191.712         191.712         191.890         191.890         322.185         322.185         322.347
    7          15.779          15.779          30.833         190.567         190.567         191.753         191.753         192.012         192.012         321.689         321.689         321.921
    8          18.408          18.408          35.951         190.189         190.189         191.802         191.802         192.159         192.159         321.105         321.105         321.417
    9          21.036          21.036          41.059         189.753         189.753         191.857         191.857         192.331         192.331         320.433         320.433         320.836
   10          23.665          23.665          46.157         189.260         189.260         191.918         191.918         192.530         192.530         319.674         319.674         320.177
   11          26.292          26.292          51.242         188.710         188.710         191.987         191.987         192.757         192.757         318.830         318.830         319.442
   12          28.919          28.919          56.314         188.103         188.103         192.061         192.061         193.013         193.013         317.901         317.901         318.630
   13          31.545          31.545          61.371         187.441         187.441         192.141         192.141         193.300         193.300         316.889         316.889         317.741
   14          34.170          34.170          66.411         186.722         186.722         192.227         192.227         193.619         193.619         315.796         315.796         316.776
   15          36.794          36.794          71.434         185.948         185.948         192.318         192.318         193.972         193.972         314.623         314.623         315.734
   16          39.416          39.416          76.438         185.119         185.119         192.413         192.413         194.361         194.361         313.371         313.371         314.616
   17          42.037          42.037          81.422         184.236         184.236         192.513         192.513         194.788         194.788         312.042         312.042         313.422
   18          44.656          44.656          86.384         183.298         183.298         192.617         192.617         195.254         195.254         310.639         310.639         312.152
   19          47.273          47.273          91.323         182.308         182.308         192.725         192.725         195.762         195.762         309.164         309.164         310.806
   20          49.888          49.888          96.238         181.265         181.265         192.836         192.836         196.313         196.313         307.617         307.617         309.386
   21          52.501          52.501         101.128         180.170         180.170         192.949         192.949         196.909         196.909         306.003         306.003         307.890
   22          55.110          55.110         105.991         179.024         179.024         193.065         193.065         197.552         197.552         304.323         304.323         306.320
   23          57.716          57.716         110.826         177.827         177.827         193.183         193.183         198.244         198.244         302.579         302.579         304.675
   24          60.319          60.319         115.632         176.580         176.580         193.302         193.302         198.986         198.986         300.775         300.775         302.957
   25          62.918          62.918         120.407         175.284         175.284         193.422         193.422         199.781         199.781         298.912         298.912         301.164
   26          65.512          65.512         125.151         173.939         173.939         193.542         193.542         200.629         200.629         296.994         296.994         299.298
   27          68.102          68.102         129.862         172.547         172.547         193.662         193.662         201.533         201.533         295.024         295.024         297.359
   28          70.687          70.687         134.539         171.109         171.109         193.782         193.782         202.492         202.492         293.003         293.003         295.348
   29          73.265          73.265         139.181         169.624         169.624         193.901         193.901         203.510         203.510         290.937         290.937         293.264
   30          75.838          75.838         143.786         168.094         168.094         194.018         194.018         204.586         204.586         288.826         288.826         291.108
   31          78.404          78.404         148.354         166.520         166.520         194.133         194.133         205.722         205.722         286.676         286.676         288.881
   32          80.962          80.962         152.883         164.903         164.903         194.246         194.246         206.917         206.917         284.488         284.488         286.583
   33          83.512          83.512         157.372         163.243         163.243         194.356         194.356         208.174         208.174         282.266         282.266         284.215
   34          86.054          86.054         161.542         161.542         161.820         194.462         194.462         209.491         209.491         280.014         280.014         281.776
   35          88.586          88.586         159.801         159.801         166.226         194.565         194.565         210.869         210.869         277.735         277.735         279.268
   36          91.109          91.109         158.020         158.020         170.589         194.664         194.664         212.309         212.309         275.432         275.432         276.691
   37          93.621          93.621         156.200         156.200         174.908         194.759         194.759         213.808         213.808         273.110         273.110         274.046
   38          96.122          96.122         154.343         154.343         179.181         194.848         194.848         215.368         215.368         270.770         270.770         271.332
   39          98.611          98.611         152.449         152.449         183.408         194.933         194.933         216.987         216.987         268.418         268.418         268.552
   40         101.086         101.086         150.519         150.519         187.588         195.012         195.012         218.664         218.664         265.704         266.057         266.057
   41         103.549         103.549         148.555         148.555         191.719         195.085         195.085         220.399         220.399         262.791         263.689         263.689
   42         105.996         105.996         146.557         146.557         195.152         195.152         195.801         222.189         222.189         259.812         261.320         261.320
   43         108.429         108.429         144.527         144.527         195.213         195.213         199.833         224.033         224.033         256.768         258.952         258.952
   44         110.845         110.845         142.465         142.465         195.267         195.267         203.813         225.929         225.929         253.660         256.589         256.589
   45         113.244         113.244         140.373         140.373         195.314         195.314         207.742         227.876         227.876         250.488         254.234         254.234
   46         115.626         115.626         138.251         138.251         195.355         195.355         211.617         229.871         229.871         247.253         251.892         251.892
   47         117.989         117.989         136.100         136.100         195.388         195.388         215.438         231.912         231.912         243.957         249.565         249.565
   48         120.332         120.332         133.922         133.922         195.414         195.414         219.204         233.997         233.997         240.599         247.258         247.258
   49         122.654         122.654         131.717         131.717         195.433         195.433         222.914         236.122         236.122         237.180         244.973         244.973
   50         124.955         124.955         129.487         129.487         195.444         195.444         226.568         233.701         238.285         238.285         242.714         242.714
   51         127.233         127.233         127.233         127.233         195.448         195.448         230.164         230.164         240.483         240.483         240.483         240.483
   52         124.955         124.955         129.487         129.487         195.444         195.444         226.568         233.701         238.285         238.285         242.714         242.714
   53         122.654         122.654         131.717         131.717         195.433         195.433         222.914         236.122         236.122         237.180         244.973         244.973
   54         120.332         120.332         133.922         133.922         195.414         195.414         219.204         233.997         233.997         240.599         247.258         247.258
   55         117.989         117.989         136.100         136.100         195.388         195.388         215.438         231.912         231.912         243.957         249.565         249.565
   56         115.626         115.626         138.251         138.251         195.355         195.355         211.617         229.871         229.871         247.253         251.892         251.892
   57         113.244         113.244         140.373         140.373         195.314         195.314         207.742         227.876         227.876         250.488         254.234         254.234
   58         110.845         110.845         142.465         142.465         195.267         195.267         203.813         225.929         225.929         253.660         256.589         256.589
   59         108.429         108.429         144.527         144.527         195.213         195.213         199.833         224.033         224.033         256.768         258.952         258.952
   60         105.996         105.996         146.557         146.557         195.152         195.152         195.801         222.189         222.189         259.812         261.320         261.320
   61         103.549         103.549         148.555         148.555         191.719         195.085         195.085         220.399         220.399         262.791         263.689         263.689
   62         101.086         101.086         150.519         150.519         187.588         195.012         195.012         218.664         218.664         265.704         266.057         266.057
   63          98.611          98.611         152.449         152.449         183.408         194.933         194.933         216.987         216.987         268.418         268.418         268.552
   64          96.122          96.122         154.343         154.343         179.181         194.848         194.848         215.368         215.368         270.770         270.770         271.332
   65          93.621          93.621         156.200         156.200         174.908         194.759         194.759         213.808         213.808         273.110         273.110         274.046
   66          91.109          91.109         158.020         158.020         170.589         194.664         194.664         212.309         212.309         275.432         275.432         276.691
   67          88.586          88.586         159.801         159.801         166.226         194.565         194.565         210.869         210.869         277.735         277.735         279.268
   68          86.054          86.054         161.542         161.542         161.820         194.462         194.462         209.491         209.491         280.014         280.014         281.776
   69          83.512          83.512         157.372         163.243         163.243         194.356         194.356         208.174         208.174         282.266         282.266         284.215
   70          80.962          80.962         152.883         164.903         164.903         194.246         194.246         206.917         206.917         284.488         284.488         286.583
   71          78.404          78.404         148.354         166.520         166.520         194.133         194.133         205.722         205.722         286.676         286.676         288.881
   72          75.838          75.838         143.786         168.094         168.094         194.018         194.018         204.586         204.586         288.826         288.826         291.108
   73          73.265          73.265         139.181         169.624         169.624         193.901         193.901         203.510         203.510         290.937         290.937         293.264
   74          70.687          70.687         134.539         171.109         171.109         193.782         193.782         202.492         202.492         293.003         293.003         295.348
   75          68.102          68.102         129.862         172.547         172.547         193.662         193.662         201.533         201.533         295.024         295.024         297.359
   76          65.512          65.512         125.151         173.939         173.939         193.542         193.542         200.629         200.629         296.994         296.994         299.298
   77          62.918          62.918         120.407         175.284         175.284         193.422         193.422         199.781         199.781         298.912         298.912         301.164
   78          60.319          60.319         115.632         176.580         176.580         193.302         193.302         198.986         198.986         300.775         300.775         302.957
   79          57.716          57.716         110.826         177.827         177.827         193.183         193.183         198.244         198.244         302.579         302.579         304.675
   80          55.110          55.110         105.991         179.024         179.024         193.065         193.065         197.552         197.552         304.323         304.323         306.320
   81          52.501          52.501         101.128         180.170         180.170         192.949         192.949         196.909         196.909         306.003         306.003         307.890
   82          49.888          49.888          96.238         181.265         181.265         192.836         192.836         196.313         196.313         307.617         307.617         309.386
   83          47.273          47.273          91.323         182.308         182.308         192.725         192.725         195.762         195.762         309.164         309.164         310.806
   84          44.656          44.656          86.384         183.298         183.298         192.617         192.617         195.254         195.254         310.639         310.639         312.152
   85          42.037          42.037          81.422         184.236         184.236         192.513         192.513         194.788         194.788         312.042         312.042         313.422
   86          39.416          39.416          76.438         185.119         185.119         192.413         192.413         194.361         194.361         313.371         313.371         314.616
   87          36.794          36.794          71.434         185.948         185.948         192.318         192.318         193.972         193.972         314.623         314.623         315.734
   88          34.170          34.170          66.411         186.722         186.722         192.227         192.227         193.619         193.619         315.796         315.796         316.776
   89          31.545          31.545          61.371         187.441         187.441         192.141         192.141         193.300         193.300         316.889         316.889         317.741
   90          28.919          28.919          56.314         188.103         188.103         192.061         192.061         193.013         193.013         317.901         317.901         318.630
   91          26.292          26.292          51.242         188.710         188.710         191.987         191.987         192.757         192.757         318.830         318.830         319.442
   92          23.665          23.665          46.157         189.260         189.260         191.918         191.918         192.530         192.530         319.674         319.674         320.177
   93          21.036          21.036          41.059         189.753         189.753         191.857         191.857         192.331         192.331         320.433         320.433         320.836
   94          18.408          18.408          35.951         190.189         190.189         191.802         191.802         192.159         192.159         321.105         321.105         321.417
   95          15.779          15.779          30.833         190.567         190.567         191.753         191.753         192.012         192.012         321.689         321.689         321.921
   96          13.150          13.150          25.707         190.888         190.888         191.712         191.712         191.890         191.890         322.185         322.185         322.347
   97          10.520          10.520          20.573         191.150         191.150         191.678         191.678         191.791         191.791         322.592         322.592         322.696
   98           7.890           7.890          15.435         191.355         191.355         191.652         191.652         191.715         191.715         322.909         322.909         322.968
   99           5.260           5.260          10.292         191.501         191.501         191.633         191.633         191.661         191.661         323.135         323.135         323.162
  100           2.630           2.630           5.147         191.588         191.588         191.621         191.621         191.628         191.628         323.271         323.271         323.278
  101           0.000           0.000           0.000         191.618         191.618         191.618         191.618         191.618         191.618         323.317         323.317         323.317
  102           2.630           2.630           5.147         191.588         191.588         191.621         191.621         191.628         191.628         323.271         323.271         323.278
  103           5.260           5.260          10.292         191.501         191.501         191.633         191.633         191.661         191.661         323.135         323.135         323.162
  104           7.890           7.890          15.435         191.355         191.355         191.652         191.652         191.715         191.715         322.909         322.909         322.968
  105          10.520          10.520          20.573         191.150         191.150         191.678         191.678         191.791         191.791         322.592         322.592         322.696
  106          13.150          13.150          25.707         190.888         190.888         191.712         191.712         191.890         191.890         322.185         322.185         322.347
  107          15.779          15.779          30.833         190.567         190.567         191.753         191.753         192.012         192.012         321.689         321.689         321.921
  108          18.408          18.408          35.951         190.189         190.189         191.802         191.802         192.159         192.159         321.105         321.105         321.417
  109          21.036          21.036          41.059         189.753         189.753         191.857         191.857         192.331         192.331         320.433         320.433         320.836
  110          23.665          23.665          46.157         189.260         189.260         191.918         191.918         192.530         192.530         319.674         319.674         320.177
  111          26.292          26.292          51.242         188.710         188.710         191.987         191.987         192.757         192.757         318.830         318.830         319.442
  112          28.919          28.919          56.314         188.103         188.103         192.061         192.061         193.013         193.013         317.901         317.901         318.630
  113          31.545          31.545          61.371         187.441         187.441         192.141         192.141         193.300         193.300         316.889         316.889         317.741
  114          34.170          34.170          66.411         186.722         186.722         192.227         192.227         193.619         193.619         315.796         315.796         316.776
  115          36.794          36.794          71.434         185.948         185.948         192.318         192.318         193.972         193.972         314.623         314.623         315.734
  116          39.416          39.416          76.438         185.119         185.119         192.413         192.413         194.361         194.361         313.371         313.371         314.616
  117          42.037          42.037          81.422         184.236         184.236         192.513         192.513         194.788         194.788         312.042         312.042         313.422
  118          44.656          44.656          86.384         183.298         183.298         192.617         192.617         195.254         195.254         310.639         310.639         312.152
  119          47.273          47.273          91.323         182.308         182.308         192.725         192.725         195.762         195.762         309.164         309.164         310.806
  120          49.888          49.888          96.238         181.265         181.265         192.836         192.836         196.313         196.313         307.617         307.617         309.386
  121          52.501          52.501         101.128         180.170         180.170         192.949         192.949         196.909         196.909         306.003         306.003         307.890
  122          55.110          55.110         105.991         179.024         179.024         193.065         193.065         197.552         197.552         304.323         304.323         306.320
  123          57.716          57.716         110.826         177.827         177.827         193.183         193.183         198.244         198.244         302.579         302.579         304.675
  124          60.319          60.319         115.632         176.580         176.580         193.302         193.302         198.986         198.986         300.775         300.775         302.957
  125          62.918          62.918         120.407         175.284         175.284         193.422         193.422         199.781         199.781         298.912         298.912         301.164
  126          65.512          65.512         125.151         173.939         173.939         193.542         193.542         200.629         200.629         296.994         296.994         299.298
  127          68.102          68.102         129.862         172.547         172.547         193.662         193.662         201.533         201.533         295.024         295.024         297.359
  128          70.687          70.687         134.539         171.109         171.109         193.782         193.782         202.492         202.492         293.003         293.003         295.348
  129          73.265          73.265         139.181         169.624         169.624         193.901         193.901         203.510         203.510         290.937         290.937         293.264
  130          75.838          75.838         143.786         168.094         168.094         194.018         194.018         204.586         204.586         288.826         288.826         291.108
  131          78.404          78.404         148.354         166.520         166.520         194.133         194.133         205.722         205.722         286.676         286.676         288.881
  132          80.962          80.962         152.883         164.903         164.903         194.246         194.246         206.917         206.917         284.488         284.488         286.583
  133          83.512          83.512         157.372         163.243         163.243         194.356         194.356         208.174         208.174         282.266         282.266         284.215
  134          86.054          86.054         161.542         161.542         161.820         194.462         194.462         209.491         209.491         280.014         280.014         281.776
  135          88.586          88.586         159.801         159.801         166.226         194.565         194.565         210.869         210.869         277.735         277.735         279.268
  136          91.109          91.109         158.020         158.020         170.589         194.664         194.664         212.309         212.309         275.432         275.432         276.691
  137          93.621          93.621         156.200         156.200         174.908         194.759         194.759         213.808         213.808         273.110         273.110         274.046
  138          96.122          96.122         154.343         154.343         179.181         194.848         194.848         215.368         215.368         270.770         270.770         271.332
  139          98.611          98.611         152.449         152.449         183.408         194.933         194.933         216.987         216.987         268.418         268.418         268.552
  140         101.086         101.086         150.519         150.519         187.588         195.012         195.012         218.664         218.664         265.704         266.057         266.057
  141         103.549         103.549         148.555         148.555         191.719         195.085         195.085         220.399         220.399         262.791         263.689         263.689
  142         105.996         105.996         146.557         146.557         195.152         195.152         195.801         222.189         222.189         259.812         261.320         261.320
  143         108.429         108.429         144.527         144.527         195.213         195.213         199.833         224.033         224.033         256.768         258.952         258.952
  144         110.845         110.845         142.465         142.465         195.267         195.267         203.813         225.929         225.929         253.660         256.589         256.589
  145         113.244         113.244         140.373         140.373         195.314         195.314         207.742         227.876         227.876         250.488         254.234         254.234
  146         115.626         115.626         138.251         138.251         195.355         195.355         211.617         229.871         229.871         247.253         251.892         251.892
  147         117.989         117.989         136.100         136.100         195.388         195.388         215.438         231.912         231.912         243.957         249.565         249.565
  148         120.332         120.332         133.922         133.922         195.414         195.414         219.204         233.997         233.997         240.599         247.258         247.258
  149         122.654         122.654         131.717         131.717         195.433         195.433         222.914         236.122         236.122         237.180         244.973         244.973
  150         124.955         124.955         129.487         129.487         195.444         195.444         226.568         233.701         238.285         238.285         242.714         242.714
  151         127.233         127.233         127.233         127.233         195.448         195.448         230.164         230.164         240.483         240.483         240.483         240.483
  152         124.955         124.955         129.487         129.487         195.444         195.444         226.568         233.701         238.285         238.285         242.714         242.714
  153         122.654         122.654         131.717         131.717         195.433         195.433         222.914         236.122         236.122         237.180         244.973         244.973
  154         120.332         120.332         133.922         133.922         195.414         195.414         219.204         233.997         233.997         240.599         247.258         247.258
  155         117.989         117.989         136.100         136.100         195.388         195.388         215.438         231.912         231.912         243.957         249.565         249.565
  156         115.626         115.626         138.251         138.251         195.355         195.355         211.617         229.871         229.871         247.253         251.892         251.892
  157         113.244         113.244         140.373         140.373         195.314         195.314         207.742         227.876         227.876         250.488         254.234         254.234
  158         110.845         110.845         142.465         142.465         195.267         195.267         203.813         225.929         225.929         253.660         256.589         256.589
  159         108.429         108.429         144.527         144.527         195.213         195.213         199.833         224.033         224.033         256.768         258.952         258.952
  160         105.996         105.996         146.557         146.557         195.152         195.152         195.801         222.189         222.189         259.812         261.320         261.320
  161         103.549         103.549         148.555         148.555         191.719         195.085         195.085         220.399         220.399         262.791         263.689         263.689
  162         101.086         101.086         150.519         150.519         187.588         195.012         195.012         218.664         218.664         265.704         266.057         266.057
  163          98.611          98.611         152.449         152.449         183.408         194.933         194.933         216.987         216.987         268.418         268.418         268.552
  164          96.122          96.122         154.343         154.343         179.181         194.848         194.848         215.368         215.368         270.770         270.770         271.332
  165          93.621          93.621         156.200         156.200         174.908         194.759         194.759         213.808         213.808         273.110         273.110         274.046
  166          91.109          91.109         158.020         158.020         170.589         194.664         194.664         212.309         212.309         275.432         275.432         276.691
  167          88.586          88.586         159.801         159.801         166.226         194.565         194.565         210.869         210.869         277.735         277.735         279.268
  168          86.054          86.054         161.542         161.542         161.820         194.462         194.462         209.491         209.491         280.014         280.014         281.776
  169          83.512          83.512         157.372         163.243         163.243         194.356         194.356         208.174         208.174         282.266         282.266         284.215
  170          80.962          80.962         152.883         164.903         164.903         194.246         194.246         206.917         206.917         284.488         284.488         286.583
  171          78.404          78.404         148.354         166.520         166.520         194.133         194.133         205.722         205.722         286.676         286.676         288.881
  172          75.838          75.838         143.786         168.094         168.094         194.018         194.018         204.586         204.586         288.826         288.826         291.108
  173          73.265          73.265         139.181         169.624         169.624         193.901         193.901         203.510         203.510         290.937         290.937         293.264
  174          70.687          70.687         134.539         171.109         171.109         193.782         193.782         202.492         202.492         293.003         293.003         295.348
  175          68.102          68.102         129.862         172.547         172.547         193.662         193.662         201.533         201.533         295.024         295.024         297.359
  176          65.512          65.512         125.151         173.939         173.939         193.542         193.542         200.629         200.629         296.994         296.994         299.298
  177          62.918          62.918         120.407         175.284         175.284         193.422         193.422         199.781         199.781         298.912         298.912         301.164
  178          60.319          60.319         115.632         176.580         176.580         193.302         193.302         198.986         198.986         300.775         300.775         302.957
  179          57.716          57.716         110.826         177.827         177.827         193.183         193.183         198.244         198.244         302.579         302.579         304.675
  180          55.110          55.110         105.991         179.024         179.024         193.065         193.065         197.552         197.552         304.323         304.323         306.320
  181          52.501          52.501         101.128         180.170         180.170         192.949         192.949         196.909         196.909         306.003         306.003         307.890
  182          49.888          49.888          96.238         181.265         181.265         192.836         192.836         196.313         196.313         307.617         307.617         309.386
  183          47.273          47.273          91.323         182.308         182.308         192.725         192.725         195.762         195.762         309.164         309.164         310.806
  184          44.656          44.656          86.384         183.298         183.298         192.617         192.617         195.254         195.254         310.639         310.639         312.152
  185          42.037          42.037          81.422         184.236         184.236         192.513         192.513         194.788         194.788         312.042         312.042         313.422
  186          39.416          39.416          76.438         185.119         185.119         192.413         192.413         194.361         194.361         313.371         313.371         314.616
  187          36.794          36.794          71.434         185.948         185.948         192.318         192.318         193.972         193.972         314.623         314.623         315.734
  188          34.170          34.170          66.411         186.722         186.722         192.227         192.227         193.619         193.619         315.796         315.796         316.776
  189          31.545          31.545          61.371         187.441         187.441         192.141         192.141         193.300         193.300         316.889         316.889         317.741
  190          28.919          28.919          56.314         188.103         188.103         192.061         192.061         193.013         193.013         317.901         317.901         318.630
  191          26.292          26.292          51.242         188.710         188.710         191.987         191.987         192.757         192.757         318.830         318.830         319.442
  192          23.665          23.665          46.157         189.260         189.260         191.918         191.918         192.530         192.530         319.674         319.674         320.177
  193          21.036          21.036          41.059         189.753         189.753         191.857         191.857         192.331         192.331         320.433         320.433         320.836
  194          18.408          18.408          35.951         190.189         190.189         191.802         191.802         192.159         192.159         321.105         321.105         321.417
  195          15.779          15.779          30.833         190.567         190.567         191.753         191.753         192.012         192.012         321.689         321.689         321.921
  196          13.150          13.150          25.707         190.888         190.888         191.712         191.712         191.890         191.890         322.185         322.185         322.347
  197          10.520          10.520          20.573         191.150         191.150         191.678         191.678         191.791         191.791         322.592         322.592         322.696
  198           7.890           7.890          15.435         191.355         191.355         191.652         191.652         191.715         191.715         322.909         322.909         322.968
  199           5.260           5.260          10.292         191.501         191.501         191.633         191.633         191.661         191.661         323.135         323.135         323.162
  200           2.630           2.630           5.147         191.588         191.588         191.621         191.621         191.628         191.628         323.271         323.271         323.278
  201           0.000           0.000           0.000         191.618         191.618         191.618         191.618         191.618         191.618         323.317         323.317         323.317
  202           2.606           2.657           5.224         191.594         191.605         191.605         191.608         191.608         191.656         323.270         323.274         323.274
  203           5.210           5.314          10.447         191.522         191.566         191.566         191.580         191.580         191.773         323.132         323.145         323.145
  204           7.809           7.972          15.666         191.402         191.500         191.500         191.533         191.533         191.966         322.900         322.931         322.931
  205          10.399          10.631          20.879         191.235         191.409         191.409         191.468         191.468         192.236         322.577         322.632         322.632
  206          12.980          13.291          26.086         191.020         191.290         191.290         191.384         191.384         192.582         322.162         322.249         322.249
  207          15.546          15.954          31.284         190.757         191.143         191.143         191.283         191.283         193.003         321.656         321.783         321.783
  208          18.098          18.618          36.471         190.447         190.968         190.968         191.165         191.165         193.499         321.061         321.235         321.235
  209          20.631          21.284          41.647         190.090         190.763         190.763         191.031         191.031         194.068         320.375         320.607         320.607
  210          23.143          23.953          46.808         189.685         190.527         190.527         190.881         190.881         194.709         319.602         319.901         319.901
  211          25.632          26.625          51.953         189.234         190.260         190.260         190.717         190.717         195.421         318.742         319.118         319.118
  212          28.096          29.300          57.080         188.735         189.960         189.960         190.538         190.538         196.201         317.795         318.261         318.261
  213          30.533          31.978          62.188         188.190         189.625         189.625         190.347         190.347         197.049         316.764         317.332         317.332
  214          32.939          34.659          67.274         187.599         189.254         189.254         190.145         190.145         197.962         315.651         316.333         316.333
  215          35.314          37.343          72.337         186.962         188.846         188.846         189.931         189.931         198.938         314.456         315.269         315.269
  216          37.654          40.031          77.374         186.280         188.398         188.398         189.708         189.708         199.975         313.181         314.141         314.141
  217          39.959          42.722          82.384         185.552         187.908         187.908         189.477         189.477         201.071         311.829         312.953         312.953
  218          42.226          45.417          87.365         184.780         187.376         187.376         189.239         189.239         202.222         310.401         311.708         311.708
  219          44.454          48.114          92.315         183.964         186.798         186.798         188.996         188.996         203.428         308.900         310.411         310.411
  220          46.641          50.815          97.231         183.103         186.173         186.173         188.748         188.748         204.684         307.326         309.064         309.064
  221          48.785          53.519         102.112         182.200         185.499         185.499         188.497         188.497         205.989         305.683         307.673         307.673
  222          50.886          56.225         106.956         181.254         184.774         184.774         188.244         188.244         207.338         303.973         306.240         306.240
  223          52.941          58.934         111.760         180.267         183.995         183.995         187.991         187.991         208.730         302.199         304.770         304.770
  224          54.950          61.645         116.523         179.238         183.161         183.161         187.739         187.739         210.160         300.361         303.269         303.269
  225          56.913          64.358         121.241         178.169         182.270         182.270         187.490         187.490         211.627         298.464         301.739         301.739
  226          58.827          67.072         125.914         177.061         181.320         181.320         187.243         187.243         213.125         296.509         300.186         300.186
  227          60.693          69.787         130.539         175.914         180.310         180.310         187.002         187.002         214.653         294.500         298.614         298.614
  228          62.510          72.503         135.114         174.730         179.237         179.237         186.766         186.766         216.206         292.438         297.028         297.028
  229          64.278          75.220         139.636         173.509         178.100         178.100         186.538         186.538         217.782         290.326         295.433         295.433
  230          65.996          77.936         144.104         172.252         176.898         176.898         186.317         186.317         219.375         288.167         293.833         293.833
  231          67.665          80.651         148.515         170.962         175.631         175.631         186.105         186.105         220.984         285.964         292.232         292.232
  232          69.284          83.366         152.866         169.639         174.298         174.298         185.903         185.903         222.604         283.718         290.635         290.635
  233          70.855          86.078         157.157         168.284         172.897         172.897         185.711         185.711         224.231         281.434         289.047         289.047
  234          72.377          88.788         161.384         166.898         171.430         171.430         185.531         185.531         225.862         279.112         287.471         287.471
  235          73.851          91.496         165.484         165.545         169.897         169.897         185.363         185.363         227.493         276.757         285.912         285.912
  236          75.278          94.200         164.043         168.298         168.298         169.638         185.206         185.206         229.120         274.370         284.372         284.372
  237          76.646          96.875         162.590         166.651         166.651         173.624         185.064         185.064         230.724         271.976         282.870         282.870
  238          77.970          99.546         161.113         164.944         164.944         177.539         184.935         184.935         232.316         269.557         281.395         281.395
  239          79.251         102.213         159.615         163.177         163.177         181.380         184.818         184.818         233.894         267.114         279.949         279.949
  240          80.491         104.874         158.096         161.353         161.353         184.714         184.714         185.147         235.453         264.649         278.535         278.535
  241          81.691         107.530         156.559         159.477         159.477         184.624         184.624         188.837         236.989         262.165         277.155         277.155
  242          82.853         110.180         155.006         157.551         157.551         184.546         184.546         192.447         238.500         259.664         275.812         275.812
  243          83.979         112.824         153.438         155.580         155.580         184.481         184.481         195.976         239.981         257.148         274.508         274.508
  244          85.071         115.461         151.858         153.568         153.568         184.427         184.427         199.423         241.428         254.619         273.243         273.243
  245          86.132         118.091         150.268         151.521         151.521         184.386         184.386         202.784         242.838         252.079         272.020         272.020
  246          87.162         120.714         148.668         149.444         149.444         184.356         184.356         206.059         244.208         249.529         270.839         270.839
  247          88.166         123.330         147.063         147.344         147.344         184.337         184.337         209.245         245.534         246.972         269.702         269.702
  248          89.145         125.938         145.227         145.227         145.454         184.329         184.329         212.341         244.409         246.813         268.610         268.610
  249          90.101         128.539         143.099         143.099         143.842         184.329         184.329         215.346         241.841         248.041         267.562         267.562
  250          91.039         131.132         140.970         140.970         142.231         184.338         184.338         218.256         239.270         249.214         266.560         266.560
  251          91.960         133.718         138.846         138.846         140.622         184.356         184.356         221.072         236.697         250.330         265.604         265.604
  252          92.867         136.295         136.736         136.736         139.017         184.380         184.380         223.792         234.124         251.386         264.694         264.694
  253          93.763         134.648         134.648         137.419         138.865         184.411         184.411         226.414         231.551         252.378         263.831         263.831
  254          94.652         132.591         132.591         135.830         141.428         184.446         184.446         228.937         228.980         253.303         263.014         263.014
  255          95.535         130.576         130.576         134.252         143.983         184.486         184.486         226.410         231.359         254.159         262.243         262.243
  256          96.416         128.610         128.610         132.687         146.532         184.530         184.530         223.844         233.681         254.942         261.518         261.518
  257          97.298         126.705         126.705         131.138         149.074         184.576         184.576         221.281         235.900         255.650         260.840         260.840
  258          98.184         124.869         124.869         129.605         151.609         184.624         184.624         218.722         238.016         256.280         260.208         260.208
  259          99.076         123.113         123.113         128.091         154.138         184.672         184.672         216.168         240.028         256.829         259.622         259.622
  260          99.977         121.446         121.446         126.597         156.662         184.721         184.721         213.618         241.936         257.296         259.083         259.083
  261         100.889         119.879         119.879         125.126         159.181         184.768         184.768         211.074         243.738         257.677         258.589         258.589
  262         101.816         118.420         118.420         123.679         161.695         184.814         184.814         208.534         245.435         257.971         258.141         258.141
  263         102.759         117.080         117.080         122.257         164.205         184.857         184.857         206.000         247.026         257.739         257.739         258.176
  264         103.721         115.866         115.866         120.861         166.712         184.897         184.897         203.470         248.510         257.383         257.383         258.288
  265         104.704         114.788         114.788         119.493         169.216         184.934         184.934         200.946         249.889         257.072         257.072         258.308
  266         105.709         113.853         113.853         118.153         171.718         184.966         184.966         198.426         251.161         256.807         256.807         258.232
  267         106.738         113.068         113.068         116.843         174.218         184.993         184.993         195.910         252.326         256.587         256.587         258.060
  268         107.794         112.438         112.438         115.563         176.717         185.015         185.015         193.398         253.386         256.413         256.413         257.789
  269         108.876         111.968         111.968         114.313         179.215         185.032         185.032         190.890         254.341         256.285         256.285         257.419
  270         109.987         111.662         111.662         113.093         181.714         185.043         185.043         188.385         255.191         256.201         256.201         256.948
  271         111.127         111.523         111.523         111.903         184.214         185.048         185.048         185.882         255.936         256.164         256.164         256.375
  272         110.744         111.551         111.551         112.297         183.381         185.047         185.047         186.716         255.699         256.171         256.171         256.577
  273         109.614         111.746         111.746         113.496         180.881         185.040         185.040         189.219         254.919         256.224         256.224         257.116
  274         108.513         112.107         112.107         114.726         178.382         185.027         185.027         191.726         254.035         256.323         256.323         257.554
  275         107.439         112.630         112.630         115.986         175.884         185.008         185.008         194.235         253.045         256.466         256.466         257.891
  276         106.392         113.312         113.312         117.277         173.384         184.985         184.985         196.748         251.950         256.656         256.656         258.128
  277         105.371         114.149         114.149         118.597         170.884         184.956         184.956         199.265         250.748         256.890         256.890         258.268
  278         104.374         115.132         115.132         119.946         168.382         184.922         184.922         201.787         249.441         257.171         257.171         258.312
  279         103.398         116.256         116.256         121.323         165.877         184.884         184.884         204.313         248.027         257.497         257.497         258.261
  280         102.443         117.513         117.513         122.728         163.369         184.843         184.843         206.844         246.507         257.868         257.868         258.118
  281         101.505         118.894         118.894         124.158         160.858         184.799         184.799         209.380         244.881         257.883         258.285         258.285
  282         100.584         120.389         120.389         125.614         158.342         184.753         184.753         211.921         243.149         257.560         258.748         258.748
  283          99.675         121.991         121.991         127.093         155.822         184.705         184.705         214.468         241.311         257.150         259.258         259.258
  284          98.778         123.689         123.689         128.593         153.296         184.656         184.656         217.019         239.369         256.655         259.813         259.813
  285          97.888         125.473         125.473         130.114         150.765         184.608         184.608         219.575         237.322         256.078         260.414         260.414
  286          97.004         127.333         127.333         131.652         148.227         184.561         184.561         222.135         235.172         255.422         261.061         261.061
  287          96.123         129.259         129.259         133.208         145.683         184.515         184.515         224.699         232.918         254.689         261.755         261.755
  288          95.241         131.243         131.243         134.777         143.132         184.473         184.473         227.266         230.563         253.881         262.495         262.495
  289          94.356         133.273         133.273         136.359         140.575         184.434         184.434         228.107         229.836         253.002         263.281         263.281
  290          93.466         135.341         135.341         137.951         138.009         184.400         184.400         225.551         232.409         252.055         264.114         264.114
  291          92.566         135.437         137.437         137.437         139.551         184.371         184.371         222.896         234.982         251.041         264.993         264.993
  292          91.655         132.857         139.553         139.553         141.158         184.349         184.349         220.144         237.555         249.965         265.918         265.918
  293          90.728         130.269         141.680         141.680         142.768         184.334         184.334         217.297         240.127         248.829         266.889         266.889
  294          89.785         127.673         143.809         143.809         144.379         184.328         184.328         214.354         242.697         247.637         267.906         267.906
  295          88.821         125.070         145.934         145.934         145.990         184.330         184.330         211.319         245.264         246.392         268.969         268.969
  296          87.834         122.459         147.599         148.046         148.046         184.343         184.343         208.193         245.097         247.825         270.076         270.076
  297          86.822         119.841         149.202         150.140         150.140         184.365         184.365         204.977         243.756         250.380         271.228         271.228
  298          85.782         117.215         150.799         152.207         152.207         184.399         184.399         201.673         242.373         252.927         272.423         272.423
  299          84.711         114.582         152.386         154.243         154.243         184.444         184.444         198.283         240.949         255.464         273.660         273.660
  300          83.608         111.943         153.963         156.242         156.242         184.501         184.501         194.809         239.490         257.989         274.938         274.938
  301          82.470         109.297         155.526         158.198         158.198         184.570         184.570         191.252         237.999         260.500         276.256         276.256
  302          81.295         106.645         157.074         160.108         160.108         184.653         184.653         187.615         236.480         262.995         277.611         277.611
  303          80.082         103.988         158.605         161.967         161.967         183.900         184.748         184.748         234.935         265.473         279.003         279.003
  304          78.829         101.324         160.117         163.772         163.772         180.108         184.855         184.855         233.370         267.931         280.428         280.428
  305          77.533          98.657         161.608         165.520         165.520         176.242         184.976         184.976         231.787         270.366         281.884         281.884
  306          76.195          95.984         163.077         167.207         167.207         172.303         185.110         185.110         230.190         272.777         283.368         283.368
  307          74.812          93.308         164.522         168.295         168.833         168.833         185.257         185.257         228.583         275.161         284.878         284.878
  308          73.383          90.628         164.218         165.941         170.396         170.396         185.415         185.415         226.970         277.516         286.410         286.410
  309          71.908          87.945         160.075         167.333         171.894         171.894         185.586         185.586         225.354         279.839         287.960         287.960
  310          70.386          85.259         155.868         168.696         173.327         173.327         185.768         185.768         223.739         282.127         289.525         289.525
  311          68.816          82.572         151.600         170.029         174.694         174.694         185.961         185.961         222.129         284.379         291.102         291.102
  312          67.198          79.883         147.272         171.331         175.997         175.997         186.164         186.164         220.528         286.592         292.685         292.685
  313          65.531          77.193         142.887         172.600         177.234         177.234         186.376         186.376         218.938         288.762         294.271         294.271
  314          63.816          74.502         138.447         173.835         178.406         178.406         186.597         186.597         217.364         290.889         295.855         295.855
  315          62.052          71.812         133.954         175.035         179.516         179.516         186.826         186.826         215.808         292.968         297.433         297.433
  316          60.240          69.121         129.409         176.199         180.563         180.563         187.061         187.061         214.276         294.998         299.001         299.001
  317          58.380          66.432         124.817         177.326         181.550         181.550         187.301         187.301         212.769         296.976         300.554         300.554
  318          56.473          63.743         120.177         178.415         182.477         182.477         187.546         187.546         211.292         298.899         302.087         302.087
  319          54.518          61.056         115.493         179.465         183.347         183.347         187.794         187.794         209.847         300.765         303.597         303.597
  320          52.518          58.371         110.766         180.475         184.161         184.161         188.044         188.044         208.438         302.572         305.078         305.078
  321          50.473          55.689         105.999         181.445         184.921         184.921         188.294         188.294         207.067         304.317         306.527         306.527
  322          48.384          53.008         101.194         182.374         185.630         185.630         188.544         188.544         205.739         305.999         307.938         307.938
  323          46.252          50.331          96.352         183.261         186.289         186.289         188.792         188.792         204.455         307.613         309.309         309.309
  324          44.079          47.656          91.476         184.105         186.899         186.899         189.037         189.037         203.220         309.160         310.635         310.635
  325          41.865          44.984          86.568         184.907         187.464         187.464         189.278         189.278         202.034         310.635         311.912         311.912
  326          39.614          42.316          81.630         185.665         187.985         187.985         189.512         189.512         200.902         312.038         313.136         313.136
  327          37.325          39.650          76.663         186.379         188.464         188.464         189.740         189.740         199.825         313.367         314.304         314.304
  328          35.002          36.988          71.669         187.049         188.902         188.902         189.960         189.960         198.805         314.618         315.413         315.413
  329          32.646          34.330          66.651         187.674         189.302         189.302         190.170         190.170         197.846         315.792         316.459         316.459
  330          30.258          31.674          61.610         188.254         189.665         189.665         190.370         190.370         196.950         316.885         317.440         317.440
  331          27.842          29.022          56.549         188.789         189.993         189.993         190.558         190.558         196.117         317.897         318.353         318.353
  332          25.399          26.373          51.468         189.278         190.287         190.287         190.733         190.733         195.351         318.826         319.195         319.195
  333          22.931          23.727          46.370         189.721         190.549         190.549         190.895         190.895         194.652         319.671         319.964         319.964
  334          20.440          21.083          41.256         190.118         190.779         190.779         191.042         191.042         194.023         320.430         320.657         320.657
  335          17.930          18.442          36.129         190.469         190.980         190.980         191.174         191.174         193.464         321.103         321.274         321.274
  336          15.402          15.803          30.990         190.773         191.152         191.152         191.289         191.289         192.978         321.687         321.811         321.811
  337          12.858          13.166          25.841         191.031         191.296         191.296         191.389         191.389         192.564         322.184         322.269         322.269
  338          10.302          10.531          20.683         191.242         191.413         191.413         191.470         191.470         192.224         322.591         322.645         322.645
  339           7.735           7.897          15.518         191.406         191.503         191.503         191.535         191.535         191.959         322.908         322.938         322.938
  340           5.161           5.264          10.348         191.524         191.567         191.567         191.581         191.581         191.770         323.135         323.148         323.148
  341           2.582           2.632           5.175         191.594         191.605         191.605         191.608         191.608         191.656         323.271         323.275         323.275
  342           0.000           0.000           0.000         191.618         191.618         191.618         191.618         191.618         191.618         323.317         323.317         323.317
  343           2.615           2.615           5.216         191.592         191.592         191.592         191.633         191.633         191.633         323.273         323.273         323.273
  344           5.228           5.228          10.431         191.515         191.515         191.515         191.681         191.681         191.681         323.142         323.142         323.142
  345           7.837           7.837          15.644         191.386         191.386         191.386         191.759         191.759         191.759         322.923         322.923         322.923
  346          10.440          10.440          20.853         191.206         191.206         191.206         191.868         191.868         191.868         322.618         322.618         322.618
  347          13.034          13.034          26.057         190.976         190.976         190.976         192.007         192.007         192.007         322.228         322.228         322.228
  348          15.619          15.619          31.254         190.694         190.694         190.694         192.176         192.176         192.176         321.752         321.752         321.752
  349          18.191          18.191          36.444         190.362         190.362         190.362         192.372         192.372         192.372         321.194         321.194         321.194
  350          20.748          20.748          41.626         189.980         189.980         189.980         192.595         192.595         192.595         320.553         320.553         320.553
  351          23.289          23.289          46.797         189.548         189.548         189.548         192.843         192.843         192.843         319.833         319.833         319.833
  352          25.812          25.812          51.957         189.067         189.067         189.067         193.114         193.114         193.114         319.035         319.035         319.035
  353          28.315          28.315          57.104         188.537         188.537         188.537         193.406         193.406         193.406         318.162         318.162         318.162
  354          30.796          30.796          62.238         187.959         187.959         187.959         193.718         193.718         193.718         317.216         317.216         317.216
  355          33.253          33.253          67.356         187.333         187.333         187.333         194.046         194.046         194.046         316.200         316.200         316.200
  356          35.685          35.685          72.457         186.661         186.661         186.661         194.388         194.388         194.388         315.117         315.117         315.117
  357          38.088          38.088          77.541         185.942         185.942         185.942         194.740         194.740         194.740         313.972         313.972         313.972
  358          40.463          40.463          82.605         185.178         185.178         185.178         195.100         195.100         195.100         312.768         312.768         312.768
  359          42.807          42.807          87.649         184.369         184.369         184.369         195.463         195.463         195.463         311.509         311.509         311.509
  360          45.118          45.118          92.671         183.517         183.517         183.517         195.825         195.825         195.825         310.201         310.201         310.201
  361          47.395          47.395          97.669         182.622         182.622         182.622         196.183         196.183         196.183         308.847         308.847         308.847
  362          49.637          49.637         102.642         181.685         181.685         181.685         196.532         196.532         196.532         307.454         307.454         307.454
  363          51.841          51.841         107.589         180.707         180.707         180.707         196.865         196.865         196.865         306.028         306.028         306.028
  364          54.007          54.007         112.509         179.689         179.689         179.689         197.179         197.179         197.179         304.574         304.574         304.574
  365          56.134          56.134         117.399         178.632         178.632         178.632         197.466         197.466         197.466         303.100         303.100         303.100
  366          58.219          58.219         122.258         177.538         177.538         177.538         197.720         197.720         197.720         301.613         301.613         301.613
  367          60.262          60.262         127.086         176.408         176.408         176.408         197.936         197.936         197.936         300.120         300.120         300.120
  368          62.262          62.262         131.879         175.242         175.242         175.242         198.105         198.105         198.105         298.630         298.630         298.630
  369          64.217          64.217         136.638         174.043         174.043         174.043         198.221         198.221         198.221         297.150         297.150         297.150
  370          66.127          66.127         141.360         172.811         172.811         172.811         198.275         198.275         198.275         295.691         295.691         295.691
  371          67.990          67.990         146.043         171.547         171.547         171.547         198.260         198.260         198.260         294.260         294.260         294.260
  372          69.807          69.807         150.687         170.254         170.254         170.254         198.167         198.167         198.167         292.868         292.868         292.868
  373          71.575          71.575         155.289         168.932         168.932         168.932         197.988         197.988         197.988         291.523         291.523         291.523
  374          73.295          73.295         159.848         167.583         167.583         167.583         197.715         197.715         197.715         290.235         290.235         290.235
  375          74.966          74.966         164.363         166.209         166.209         166.209         197.342         197.342         197.342         289.013         289.013         289.013
  376          76.588          76.588         164.811         164.811         164.811         168.831         196.859         196.859         196.859         287.864         287.864         287.864
  377          78.159          78.159         163.390         163.390         163.390         173.251         196.261         196.261         196.261         286.798         286.798         286.798
  378          79.680          79.680         161.948         161.948         161.948         177.622         195.543         195.543         195.543         285.820         285.820         285.820
  379          81.150          81.150         160.487         160.487         160.487         181.941         194.699         194.699         194.699         284.938         284.938         284.938
  380          82.570          82.570         159.009         159.009         159.009         186.208         193.727         193.727         193.727         284.155         284.155         284.155
  381          83.939          83.939         157.515         157.515         157.515         190.420         192.624         192.624         192.624         283.475         283.475         283.475
  382          85.257          85.257         156.006         156.006         156.006         191.390         191.390         191.390         194.576         282.900         282.900         282.900
  383          86.524          86.524         154.485         154.485         154.485         190.026         190.026         190.026         198.675         282.431         282.431         282.431
  384          87.741          87.741         152.953         152.953         152.953         188.535         188.535         188.535         202.713         282.066         282.066         282.066
  385          88.908          88.908         151.413         151.413         151.413         186.920         186.920         186.920         206.691         281.804         281.804         281.804
  386          90.024          90.024         149.865         149.865         149.865         185.185         185.185         185.185         210.606         281.642         281.642         281.642
  387          91.091          91.091         148.313         148.313         148.313         183.338         183.338         183.338         214.456         281.575         281.575         281.575
  388          92.110          92.110         146.757         146.757         146.757         181.385         181.385         181.385         218.240         281.598         281.598         281.598
  389          93.080          93.080         145.199         145.199         145.199         179.333         179.333         179.333         221.956         281.706         281.706         281.706
  390          94.002          94.002         143.642         143.642         143.642         177.190         177.190         177.190         225.603         281.892         281.892         281.892
  391          94.877          94.877         142.088         142.088         142.088         174.965         174.965         174.965         229.178         282.150         282.150         282.150
  392          95.707          95.707         140.538         140.538         140.538         172.666         172.666         172.666         232.681         282.474         282.474         282.474
  393          96.491          96.491         138.995         138.995         138.995         170.301         170.301         170.301         236.110         282.857         282.857         282.857
  394          97.231          97.231         137.461         137.461         137.461         167.880         167.880         167.880         239.463         283.293         283.293         283.293
  395          97.928          97.928         135.937         135.937         135.937         165.411         165.411         165.411         242.738         283.775         283.775         283.775
  396          98.583          98.583         134.425         134.425         134.425         162.902         162.902         162.902         245.934         284.298         284.298         284.298
  397          99.197          99.197         132.929         132.929         132.929         160.362         160.362         160.362         249.049         284.854         284.854         284.854
  398          99.771          99.771         131.450         131.450         131.450         157.799         157.799         157.799         252.083         285.440         285.440         285.440
  399         100.307         100.307         129.989         129.989         129.989         155.220         155.220         155.220         255.033         286.049         286.049         286.049
  400         100.807         100.807         128.550         128.550         128.550         152.633         152.633         152.633         257.897         286.677         286.677         286.677
  401         101.270         101.270         127.135         127.135         127.135         150.047         150.047         150.047         260.676         287.318         287.318         287.318
  402         101.699         101.699         125.745         125.745         125.745         147.468         147.468         147.468         263.366         287.969         287.969         287.969
  403         102.095         102.095         124.383         124.383         124.383         144.904         144.904         144.904         265.967         288.625         288.625         288.625
  404         102.460         102.460         123.051         123.051         123.051         142.361         142.361         142.361         268.478         289.282         289.282         289.282
  405         102.795         102.795         121.751         121.751         121.751         139.848         139.848         139.848         270.897         289.937         289.937         289.937
  406         103.102         103.102         120.486         120.486         120.486         137.371         137.371         137.371         273.222         290.587         290.587         290.587
  407         103.382         103.382         119.257         119.257         119.257         134.937         134.937         134.937         275.453         291.227         291.227         291.227
  408         103.636         103.636         118.067         118.067         118.067         132.552         132.552         132.552         277.589         291.856         291.856         291.856
  409         103.867         103.867         116.919         116.919         116.919         130.225         130.225         130.225         279.628         292.469         292.469         292.469
  410         104.075         104.075         115.813         115.813         115.813         127.962         127.962         127.962         281.570         293.066         293.066         293.066
  411         104.262         104.262         114.753         114.753         114.753         125.769         125.769         125.769         283.412         293.643         293.643         293.643
  412         104.429         104.429         113.741         113.741         113.741         123.653         123.653         123.653         285.155         294.198         294.198         294.198
  413         104.579         104.579         112.778         112.778         112.778         121.622         121.622         121.622         286.797         294.729         294.729         294.729
  414         104.711         104.711         111.866         111.866         111.866         119.682         119.682         119.682         288.337         295.234         295.234         295.234
  415         104.829         104.829         111.008         111.008         111.008         117.839         117.839         117.839         289.775         295.712         295.712         295.712
  416         104.932         104.932         110.205         110.205         110.205         116.100         116.100         116.100         291.110         296.161         296.161         296.161
  417         105.022         105.022         109.460         109.460         109.460         114.473         114.473         114.473         292.340         296.579         296.579         296.579
  418         105.100         105.100         108.773         108.773         108.773         112.962         112.962         112.962         293.466         296.964         296.964         296.964
  419         105.167         105.167         108.146         108.146         108.146         111.574         111.574         111.574         294.487         297.317         297.317         297.317
  420         105.225         105.225         107.581         107.581         107.581         110.315         110.315         110.315         295.402         297.636         297.636         297.636
  421         105.274         105.274         107.079         107.079         107.079         109.190         109.190         109.190         296.210         297.919         297.919         297.919
  422         105.314         105.314         106.642         106.642         106.642         108.204         108.204         108.204         296.911         298.166         298.166         298.166
  423         105.347         105.347         106.270         106.270         106.270         107.361         107.361         107.361         297.506         298.376         298.376         298.376
  424         105.373         105.373         105.964         105.964         105.964         106.666         106.666         106.666         297.992         298.549         298.549         298.549
  425         105.393         105.393         105.726         105.726         105.726         106.122         106.122         106.122         298.371         298.684         298.684         298.684
  426         105.407         105.407         105.555         105.555         105.555         105.732         105.732         105.732         298.642         298.781         298.781         298.781
  427         105.415         105.415         105.452         105.452         105.452         105.497         105.497         105.497         298.804         298.839         298.839         298.839
  428         105.418         105.418         105.418         105.418         105.418         105.418         105.418         105.418         298.858         298.858         298.858         298.858
