# Phonon frequencies in cm-1
    1           0.000           0.000           0.000         251.962         251.962         677.853
    2           3.227           3.514           9.422         251.996         252.086         677.792
    3           6.456           7.026          18.839         252.098         252.458         677.610
    4           9.687          10.535          28.247         252.267         253.076         677.307
    5          12.921          14.040          37.641         252.504         253.939         676.884
    6          16.161          17.537          47.016         252.809         255.044         676.340
    7          19.405          21.027          56.367         253.181         256.387         675.677
    8          22.657          24.506          65.690         253.620         257.964         674.894
    9          25.916          27.975          74.980         254.126         259.771         673.994
   10          29.185          31.430          84.232         254.698         261.803         672.978
   11          32.463          34.871          93.441         255.337         264.054         671.845
   12          35.752          38.296         102.602         256.041         266.518         670.599
   13          39.052          41.705         111.710         256.811         269.189         669.239
   14          42.365          45.094         120.761         257.646         272.060         667.769
   15          45.692          48.463         129.748         258.544         275.125         666.189
   16          49.032          51.811         138.668         259.507         278.378         664.501
   17          52.387          55.137         147.514         260.532         281.811         662.708
   18          55.757          58.439         156.281         261.619         285.419         660.811
   19          59.143          61.715         164.965         262.768         289.194         658.813
   20          62.546          64.966         173.559         263.977         293.130         656.715
   21          65.964          68.189         182.059         265.245         297.221         654.522
   22          69.400          71.385         190.459         266.571         301.461         652.234
   23          72.852          74.551         198.754         267.955         305.844         649.855
   24          76.322          77.687         206.938         269.394         310.364         647.387
   25          79.809          80.793         215.007         270.889         315.016         644.833
   26          83.313          83.867         222.957         272.436         319.793         642.196
   27          86.834          86.908         230.781         274.036         324.691         639.480
   28          89.916          90.373         238.477         275.685         329.703         636.687
   29          92.890          93.927         246.040         277.384         334.824         633.820
   30          95.829          97.499         253.467         279.130         340.048         630.882
   31          98.734         101.086         260.754         280.921         345.369         627.878
   32         101.602         104.688         267.901         282.756         350.781         624.810
   33         104.435         108.305         274.905         284.633         356.276         621.681
   34         107.231         111.937         281.765         286.549         361.849         618.496
   35         109.989         115.581         288.481         288.504         367.490         615.257
   36         112.710         119.238         290.495         295.053         373.193         611.968
   37         115.392         122.907         292.520         301.482         378.950         608.633
   38         118.036         126.587         294.577         307.771         384.751         605.256
   39         120.641         130.276         296.664         313.920         390.589         601.839
   40         123.207         133.974         298.779         319.933         396.454         598.387
   41         125.733         137.680         300.919         325.812         402.337         594.903
   42         128.219         141.391         303.083         331.560         408.230         591.391
   43         130.664         145.108         305.267         337.181         414.125         587.854
   44         133.069         148.828         307.471         342.677         420.012         584.297
   45         135.432         152.550         309.692         348.053         425.883         580.722
   46         137.754         156.273         311.927         353.310         431.730         577.133
   47         140.035         159.995         314.174         358.453         437.546         573.534
   48         142.274         163.714         316.432         363.483         443.323         569.929
   49         144.470         167.430         318.697         368.404         449.055         566.320
   50         146.624         171.140         320.967         373.218         454.735         562.711
   51         148.735         174.843         323.240         377.927         460.357         559.106
   52         150.804         178.536         325.515         382.533         465.916         555.507
   53         152.829         182.219         327.787         387.038         471.406         551.919
   54         154.810         185.888         330.057         391.444         476.822         548.344
   55         156.748         189.544         332.320         395.752         482.160         544.785
   56         158.643         193.182         334.575         399.962         487.416         541.246
   57         160.493         196.802         336.819         404.078         492.586         537.729
   58         162.300         200.402         339.051         408.098         497.667         534.237
   59         164.062         203.979         341.268         412.024         502.655         530.774
   60         165.780         207.531         343.468         415.856         507.547         527.341
   61         167.453         211.057         345.649         419.596         512.341         523.942
   62         169.083         214.554         347.808         423.243         517.034         520.579
   63         170.667         218.020         349.944         426.798         517.255         521.624
   64         172.208         221.453         352.055         430.261         513.972         526.109
   65         173.704         224.851         354.137         433.632         510.732         530.487
   66         175.155         228.210         356.190         436.912         507.539         534.756
   67         176.562         231.530         358.211         440.100         504.393         538.915
   68         177.925         234.808         360.198         443.196         501.298         542.962
   69         179.244         238.040         362.149         446.202         498.255         546.896
   70         180.519         241.226         364.063         449.116         495.266         550.716
   71         181.750         244.361         365.936         451.938         492.334         554.421
   72         182.937         247.444         367.769         454.669         489.461         558.010
   73         184.081         250.472         369.558         457.309         486.649         561.482
   74         185.181         253.443         371.301         459.857         483.899         564.836
   75         186.239         256.352         372.998         462.313         481.214         568.072
   76         187.253         259.198         374.646         464.677         478.596         571.188
   77         188.225         261.978         376.244         466.950         476.047         574.185
   78         189.154         264.687         377.789         469.130         473.569         577.062
   79         190.041         267.324         379.282         471.165         471.219         579.819
   80         190.886         269.885         380.719         468.837         473.216         582.454
   81         191.689         272.366         382.099         466.587         475.120         584.968
   82         192.451         274.763         383.422         464.417         476.932         587.361
   83         193.172         277.074         384.685         462.331         478.651         589.632
   84         193.852         279.293         385.888         460.332         480.278         591.781
   85         194.492         281.418         387.028         458.421         481.813         593.808
   86         195.091         283.444         388.106         456.602         483.255         595.712
   87         195.650         285.367         389.120         454.879         484.604         597.495
   88         196.170         287.183         390.068         453.254         485.860         599.154
   89         196.650         288.887         390.950         451.731         487.024         600.691
   90         197.090         290.475         391.765         450.313         488.095         602.105
   91         197.492         291.944         392.512         449.003         489.072         603.396
   92         197.854         293.288         393.191         447.805         489.957         604.564
   93         198.178         294.503         393.799         446.723         490.749         605.610
   94         198.464         295.586         394.338         445.759         491.447         606.532
   95         198.710         296.533         394.806         444.917         492.053         607.332
   96         198.919         297.340         395.203         444.198         492.566         608.008
   97         199.090         298.005         395.528         443.607         492.985         608.562
   98         199.222         298.525         395.781         443.145         493.311         608.993
   99         199.317         298.898         395.963         442.814         493.544         609.300
  100         199.374         299.123         396.071         442.614         493.684         609.485
  101         199.393         299.198         396.108         442.548         493.730         609.546
  102         199.584         299.198         396.135         442.504         493.720         609.500
  103         200.156         299.198         396.217         442.372         493.688         609.360
  104         201.104         299.198         396.353         442.152         493.634         609.128
  105         202.422         299.199         396.545         441.845         493.558         608.804
  106         204.098         299.202         396.791         441.451         493.461         608.389
  107         206.120         299.207         397.092         440.970         493.341         607.883
  108         208.474         299.215         397.448         440.404         493.199         607.287
  109         211.143         299.228         397.860         439.754         493.033         606.602
  110         214.110         299.246         398.327         439.019         492.843         605.830
  111         217.356         299.271         398.850         438.202         492.629         604.973
  112         220.861         299.304         399.428         437.303         492.390         604.031
  113         224.605         299.348         400.062         436.325         492.125         603.008
  114         228.569         299.404         400.753         435.267         491.833         601.904
  115         232.733         299.474         401.499         434.133         491.514         600.723
  116         237.077         299.560         402.301         432.923         491.166         599.466
  117         241.581         299.665         403.159         431.640         490.789         598.136
  118         246.228         299.790         404.073         430.286         490.383         596.735
  119         251.000         299.938         405.042         428.861         489.945         595.268
  120         255.878         300.111         406.066         427.370         489.475         593.736
  121         260.848         300.312         407.144         425.812         488.972         592.142
  122         265.892         300.543         408.276         424.192         488.435         590.491
  123         270.997         300.806         409.460         422.511         487.863         588.785
  124         276.147         301.105         410.696         420.771         487.255         587.029
  125         281.330         301.441         411.982         418.975         486.611         585.226
  126         286.533         301.817         413.317         417.126         485.929         583.380
  127         291.743         302.236         414.699         415.226         485.209         581.495
  128         296.950         302.699         413.278         416.125         484.451         579.575
  129         302.142         303.210         411.283         417.594         483.652         577.626
  130         303.770         307.310         409.246         419.103         482.814         575.651
  131         304.381         312.443         407.168         420.649         481.935         573.655
  132         305.046         317.532         405.052         422.229         481.016         571.643
  133         305.766         322.569         402.902         423.839         480.056         569.621
  134         306.544         327.544         400.718         425.475         479.056         567.594
  135         307.380         332.450         398.505         427.133         478.016         565.566
  136         308.277         337.279         396.265         428.807         476.936         563.545
  137         309.235         342.022         394.000         430.493         475.819         561.536
  138         310.257         346.673         391.713         432.185         474.664         559.546
  139         311.342         351.223         389.406         433.877         473.474         557.580
  140         312.493         355.665         387.082         435.561         472.251         555.647
  141         313.709         359.991         384.744         437.230         470.999         553.752
  142         314.991         364.193         382.393         438.877         469.720         551.903
  143         316.340         368.262         380.032         440.493         468.420         550.109
  144         317.755         372.188         377.663         442.069         467.104         548.377
  145         319.237         375.287         375.962         443.595         465.779         546.716
  146         320.786         372.908         379.573         445.062         464.454         545.134
  147         322.401         370.526         383.007         446.458         463.137         543.641
  148         324.081         368.144         386.250         447.772         461.842         542.244
  149         325.827         365.763         389.285         448.995         460.583         540.954
  150         327.637         363.385         392.095         450.114         459.377         539.777
  151         329.511         361.010         394.659         451.118         458.243         538.724
  152         331.448         358.641         396.953         451.998         457.203         537.800
  153         333.445         356.278         398.952         452.745         456.282         537.012
  154         335.503         353.922         400.631         453.349         455.505         536.365
  155         337.620         351.575         401.966         453.804         454.895         535.862
  156         339.793         349.237         402.937         454.104         454.474         535.503
  157         342.019         346.912         403.531         454.223         454.279         535.287
  158         344.184         344.712         403.742         454.226         454.250         535.211
  159         341.894         347.040         403.517         454.034         454.467         535.290
  160         339.614         349.417         402.942         453.692         454.865         535.493
  161         337.343         351.844         402.038         453.206         455.421         535.808
  162         335.082         354.317         400.836         452.580         456.108         536.225
  163         332.829         356.837         399.364         451.823         456.898         536.733
  164         330.585         359.400         397.653         450.941         457.762         537.319
  165         328.349         362.006         395.729         449.942         458.676         537.969
  166         326.120         364.653         393.619         448.834         459.615         538.671
  167         323.898         367.339         391.344         447.624         460.562         539.412
  168         321.680         370.063         388.923         446.319         461.498         540.178
  169         319.468         372.824         386.372         444.926         462.410         540.959
  170         317.258         375.620         383.706         443.451         463.286         541.743
  171         315.050         378.450         380.935         441.898         464.117         542.518
  172         312.843         378.071         381.312         440.274         464.896         543.274
  173         310.635         375.122         384.206         438.582         465.615         544.002
  174         308.426         372.097         387.130         436.824         466.271         544.693
  175         306.212         369.001         390.084         435.006         466.860         545.337
  176         303.994         365.842         393.065         433.128         467.377         545.928
  177         301.769         362.624         396.074         431.194         467.821         546.458
  178         299.536         359.352         399.110         429.205         468.189         546.919
  179         297.293         356.030         402.171         427.162         468.480         547.305
  180         295.038         352.663         405.258         425.066         468.693         547.611
  181         292.771         349.254         408.369         422.919         468.827         547.829
  182         290.489         345.807         411.504         420.722         468.882         547.956
  183         288.190         342.324         414.663         418.474         468.857         547.986
  184         285.874         338.809         416.177         417.844         468.751         547.914
  185         283.539         335.265         413.831         421.049         468.566         547.736
  186         281.182         331.693         411.436         424.275         468.300         547.447
  187         278.803         328.097         408.993         427.524         467.954         547.045
  188         276.401         324.478         406.502         430.795         467.527         546.524
  189         273.973         320.840         403.963         434.088         467.022         545.882
  190         271.519         317.182         401.378         437.402         466.436         545.115
  191         269.038         313.509         398.745         440.738         465.771         544.220
  192         266.528         309.821         396.067         444.095         465.027         543.195
  193         263.987         306.120         393.343         447.474         464.205         542.036
  194         261.417         302.407         390.575         450.874         463.303         540.742
  195         258.814         298.684         387.763         454.295         462.324         539.310
  196         256.179         294.953         384.908         457.737         461.267         537.738
  197         253.510         291.214         382.013         460.132         461.200         536.024
  198         250.808         287.468         379.076         458.919         464.684         534.166
  199         248.071         283.717         376.101         457.629         468.189         532.164
  200         245.300         279.961         373.089         456.263         471.714         530.014
  201         242.493         276.202         370.041         454.819         475.260         527.717
  202         239.651         272.439         366.960         453.299         478.826         525.270
  203         236.773         268.674         363.846         451.703         482.412         522.674
  204         233.860         264.906         360.703         450.030         486.017         519.927
  205         230.911         261.137         357.532         448.281         489.641         517.029
  206         227.927         257.367         354.336         446.457         493.283         513.980
  207         224.908         253.595         351.117         444.557         496.943         510.779
  208         221.855         249.822         347.877         442.581         500.620         507.425
  209         218.767         246.048         344.620         440.531         503.921         504.314
  210         215.645         242.272         341.347         438.405         500.264         508.023
  211         212.490         238.496         338.062         436.205         496.457         511.746
  212         209.303         234.717         334.768         433.930         492.499         515.482
  213         206.084         230.937         331.466         431.581         488.392         519.231
  214         202.835         227.155         328.161         429.159         484.137         522.991
  215         199.556         223.370         324.855         426.664         479.734         526.760
  216         196.248         219.582         321.550         424.095         475.186         530.537
  217         192.912         215.791         318.250         421.455         470.494         534.321
  218         189.551         211.996         314.957         418.743         465.659         538.110
  219         186.164         208.196         311.674         415.960         460.685         541.901
  220         182.753         204.391         308.403         413.108         455.573         545.694
  221         179.320         200.580         305.146         410.186         450.327         549.485
  222         175.865         196.763         301.905         407.196         444.948         553.274
  223         172.391         192.939         298.683         404.139         439.442         557.057
  224         168.899         189.108         295.480         401.016         433.810         560.833
  225         165.390         185.269         292.297         397.829         428.059         564.599
  226         161.865         181.421         289.136         394.579         422.191         568.352
  227         158.327         177.564         285.996         391.267         416.213         572.091
  228         154.776         173.697         282.875         387.896         410.131         575.811
  229         151.215         169.821         279.774         384.468         403.950         579.512
  230         147.644         165.934         276.689         380.984         397.679         583.189
  231         144.066         162.037         273.618         377.447         391.326         586.840
  232         140.482         158.129         270.554         373.860         384.900         590.462
  233         136.893         154.210         267.493         370.225         378.413         594.052
  234         133.302         150.280         264.426         366.545         371.876         597.608
  235         129.708         146.340         261.344         362.823         365.305         601.125
  236         126.115         142.389         258.233         358.716         359.063         604.601
  237         122.522         138.428         255.079         352.129         355.268         608.033
  238         118.933         134.457         251.864         345.566         351.443         611.417
  239         115.347         130.476         248.565         339.052         347.591         614.751
  240         111.766         126.487         245.157         332.617         343.716         618.031
  241         108.191         122.491         241.611         326.294         339.825         621.255
  242         104.624         118.488         237.892         320.119         335.921         624.418
  243         101.066         114.479         233.966         314.132         332.010         627.518
  244          97.517         110.466         229.793         308.373         328.097         630.552
  245          93.978         106.451         225.337         302.884         324.190         633.516
  246          90.451         102.434         220.563         297.699         320.294         636.408
  247          86.935          98.417         215.444         292.849         316.416         639.225
  248          83.432          94.403         209.961         288.355         312.563         641.963
  249          79.942          90.394         204.107         284.227         308.743         644.620
  250          76.466          86.390         197.883         280.465         304.964         647.192
  251          73.004          82.396         191.301         277.057         301.234         649.677
  252          69.556          78.412         184.383         273.987         297.562         652.073
  253          66.123          74.442         177.153         271.229         293.957         654.376
  254          62.704          70.487         169.638         268.759         290.428         656.584
  255          59.300          66.550         161.866         266.551         286.986         658.695
  256          55.910          62.633         153.865         264.578         283.641         660.706
  257          52.535          58.738         145.659         262.818         280.403         662.615
  258          49.174          54.868         137.271         261.248         277.284         664.419
  259          45.826          51.024         128.723         259.851         274.294         666.117
  260          42.492          47.207         120.034         258.608         271.445         667.707
  261          39.170          43.419         111.219         257.505         268.748         669.187
  262          35.861          39.661         102.295         256.529         266.214         670.554
  263          32.562          35.933          93.274         255.670         263.855         671.808
  264          29.274          32.235          84.168         254.918         261.682         672.948
  265          25.996          28.566          74.989         254.265         259.704         673.971
  266          22.727          24.925          65.747         253.703         257.933         674.876
  267          19.465          21.311          56.451         253.228         256.376         675.663
  268          16.210          17.719          47.109         252.833         255.044         676.331
  269          12.961          14.149          37.731         252.515         253.944         676.878
  270           9.717          10.596          28.323         252.271         253.081         677.304
  271           6.476           7.056          18.894         252.099         252.460         677.609
  272           3.237           3.526           9.451         251.996         252.087         677.792
  273           0.000           0.000           0.000         251.962         251.962         677.853
  274           3.235           3.235           9.528         251.930         251.930         677.777
  275           6.470           6.470          19.054         251.832         251.832         677.547
  276           9.704           9.704          28.577         251.669         251.669         677.165
  277          12.938          12.938          38.096         251.442         251.442         676.631
  278          16.172          16.172          47.608         251.150         251.150         675.944
  279          19.405          19.405          57.112         250.793         250.793         675.104
  280          22.638          22.638          66.606         250.371         250.371         674.113
  281          25.870          25.870          76.090         249.886         249.886         672.970
  282          29.100          29.100          85.560         249.336         249.336         671.676
  283          32.330          32.330          95.016         248.723         248.723         670.231
  284          35.559          35.559         104.457         248.046         248.046         668.636
  285          38.786          38.786         113.879         247.307         247.307         666.890
  286          42.012          42.012         123.283         246.505         246.505         664.996
  287          45.235          45.235         132.665         245.640         245.640         662.953
  288          48.457          48.457         142.026         244.714         244.714         660.762
  289          51.677          51.677         151.362         243.727         243.727         658.423
  290          54.894          54.894         160.672         242.678         242.678         655.938
  291          58.108          58.108         169.955         241.570         241.570         653.307
  292          61.319          61.319         179.209         240.402         240.402         650.531
  293          64.527          64.527         188.432         239.175         239.175         647.611
  294          67.732          67.732         197.623         237.889         237.889         644.548
  295          70.932          70.932         206.780         236.546         236.546         641.343
  296          74.128          74.128         215.900         235.146         235.146         637.997
  297          77.320          77.320         224.984         233.689         233.689         634.510
  298          80.506          80.506         232.177         232.177         234.028         630.885
  299          83.687          83.687         230.609         230.609         243.032         627.122
  300          86.861          86.861         228.988         228.988         251.992         623.221
  301          90.029          90.029         227.313         227.313         260.909         619.186
  302          93.191          93.191         225.586         225.586         269.779         615.016
  303          96.344          96.344         223.807         223.807         278.602         610.713
  304          99.490          99.490         221.977         221.977         287.375         606.278
  305         102.627         102.627         220.097         220.097         296.096         601.713
  306         105.755         105.755         218.169         218.169         304.765         597.018
  307         108.873         108.873         216.192         216.192         313.378         592.197
  308         111.981         111.981         214.168         214.168         321.935         587.249
  309         115.077         115.077         212.097         212.097         330.434         582.176
  310         118.162         118.162         209.982         209.982         338.872         576.980
  311         121.235         121.235         207.822         207.822         347.248         571.662
  312         124.294         124.294         205.618         205.618         355.560         566.224
  313         127.339         127.339         203.372         203.372         363.807         560.667
  314         130.369         130.369         201.085         201.085         371.986         554.994
  315         133.384         133.384         198.757         198.757         380.096         549.205
  316         136.383         136.383         196.390         196.390         388.134         543.302
  317         139.364         139.364         193.985         193.985         396.100         537.287
  318         142.328         142.328         191.542         191.542         403.991         531.161
  319         145.272         145.272         189.062         189.062         411.805         524.927
  320         148.197         148.197         186.548         186.548         419.541         518.585
  321         151.101         151.101         183.999         183.999         427.197         512.138
  322         153.984         153.984         181.417         181.417         434.770         505.588
  323         156.844         156.844         178.802         178.802         442.259         498.935
  324         159.681         159.681         176.156         176.156         449.663         492.182
  325         162.493         162.493         173.480         173.480         456.979         485.331
  326         165.281         165.281         170.775         170.775         464.206         478.384
  327         168.041         168.041         168.041         168.041         471.341         471.341
  328         168.083         168.083         168.229         168.229         471.333         471.333
  329         168.206         168.206         168.790         168.790         471.306         471.306
  330         168.412         168.412         169.719         169.719         471.264         471.264
  331         168.699         168.699         171.006         171.006         471.205         471.205
  332         169.067         169.067         172.639         172.639         471.132         471.132
  333         169.514         169.514         174.602         174.602         471.046         471.046
  334         170.041         170.041         176.878         176.878         470.950         470.950
  335         170.646         170.646         179.446         179.446         470.846         470.846
  336         171.326         171.326         182.284         182.284         470.737         470.737
  337         172.082         172.082         185.370         185.370         470.626         470.626
  338         172.911         172.911         188.681         188.681         470.517         470.517
  339         173.811         173.811         192.191         192.191         470.415         470.415
  340         174.780         174.780         195.876         195.876         470.323         470.323
  341         175.817         175.817         199.714         199.714         470.248         470.248
  342         176.919         176.919         203.678         203.678         470.194         470.194
  343         178.083         178.083         207.747         207.747         470.167         470.167
  344         179.309         179.309         211.896         211.896         470.175         470.175
  345         180.592         180.592         216.104         216.104         470.222         470.222
  346         181.932         181.932         220.349         220.349         470.317         470.317
  347         183.325         183.325         224.609         224.609         470.467         470.467
  348         184.768         184.768         228.864         228.864         470.680         470.680
  349         186.260         186.260         233.096         233.096         470.963         470.963
  350         187.798         187.798         237.283         237.283         471.325         471.325
  351         189.379         189.379         241.409         241.409         471.774         471.774
  352         191.001         191.001         245.457         245.457         472.318         472.318
  353         192.661         192.661         249.409         249.409         472.966         472.966
  354         194.357         194.357         253.251         253.251         473.725         473.725
  355         196.085         196.085         256.969         256.969         474.603         474.603
  356         197.844         197.844         260.549         260.549         475.606         475.606
  357         199.632         199.632         263.979         263.979         476.742         476.742
  358         201.445         201.445         267.250         267.250         478.016         478.016
  359         203.282         203.282         270.352         270.352         479.431         479.431
  360         205.139         205.139         273.278         273.278         480.993         480.993
  361         207.015         207.015         276.022         276.022         482.702         482.702
  362         208.908         208.908         278.582         278.582         484.560         484.560
  363         210.814         210.814         280.954         280.954         486.566         486.566
  364         212.733         212.733         283.138         283.138         488.718         488.718
  365         214.661         214.661         285.137         285.137         491.013         491.013
  366         216.597         216.597         286.951         286.951         493.448         493.448
  367         218.539         218.539         288.587         288.587         496.015         496.015
  368         220.484         220.484         290.049         290.049         498.708         498.708
  369         222.431         222.431         291.344         291.344         501.519         501.519
  370         224.378         224.378         292.480         292.480         504.441         504.441
  371         226.323         226.323         293.466         293.466         507.463         507.463
  372         228.264         228.264         294.311         294.311         510.577         510.577
  373         230.199         230.199         295.024         295.024         513.772         513.772
  374         232.127         232.127         295.616         295.616         517.039         517.039
  375         234.045         234.045         296.095         296.095         520.367         520.367
  376         235.953         235.953         296.472         296.472         523.747         523.747
  377         237.849         237.849         296.756         296.756         527.169         527.169
  378         239.730         239.730         296.958         296.958         530.623         530.623
  379         241.597         241.597         297.086         297.086         534.100         534.100
  380         243.446         243.446         297.149         297.149         537.592         537.592
  381         245.277         245.277         297.155         297.155         541.090         541.090
  382         247.089         247.089         297.113         297.113         544.587         544.587
  383         248.879         248.879         297.030         297.030         548.074         548.074
  384         250.647         250.647         296.912         296.912         551.545         551.545
  385         252.391         252.391         296.767         296.767         554.992         554.992
  386         254.111         254.111         296.600         296.600         558.411         558.411
  387         255.804         255.804         296.416         296.416         561.794         561.794
  388         257.471         257.471         296.221         296.221         565.137         565.137
  389         259.108         259.108         296.020         296.020         568.434         568.434
  390         260.717         260.717         295.815         295.815         571.681         571.681
  391         262.294         262.294         295.611         295.611         574.874         574.874
  392         263.841         263.841         295.411         295.411         578.008         578.008
  393         265.354         265.354         295.218         295.218         581.080         581.080
  394         266.834         266.834         295.034         295.034         584.086         584.086
  395         268.280         268.280         294.861         294.861         587.024         587.024
  396         269.690         269.690         294.700         294.700         589.890         589.890
  397         271.064         271.064         294.553         294.553         592.682         592.682
  398         272.401         272.401         294.420         294.420         595.397         595.397
  399         273.700         273.700         294.303         294.303         598.034         598.034
  400         274.961         274.961         294.202         294.202         600.590         600.590
  401         276.182         276.182         294.116         294.116         603.063         603.063
  402         277.362         277.362         294.046         294.046         605.452         605.452
  403         278.502         278.502         293.991         293.991         607.755         607.755
  404         279.601         279.601         293.952         293.952         609.972         609.972
  405         280.657         280.657         293.926         293.926         612.100         612.100
  406         281.671         281.671         293.913         293.913         614.139         614.139
  407         282.641         282.641         293.913         293.913         616.087         616.087
  408         283.568         283.568         293.924         293.924         617.944         617.944
  409         284.450         284.450         293.945         293.945         619.710         619.710
  410         285.287         285.287         293.974         293.974         621.383         621.383
  411         286.078         286.078         294.012         294.012         622.962         622.962
  412         286.824         286.824         294.055         294.055         624.448         624.448
  413         287.524         287.524         294.103         294.103         625.840         625.840
  414         288.177         288.177         294.155         294.155         627.137         627.137
  415         288.784         288.784         294.209         294.209         628.339         628.339
  416         289.343         289.343         294.264         294.264         629.445         629.445
  417         289.854         289.854         294.319         294.319         630.456         630.456
  418         290.318         290.318         294.372         294.372         631.372         631.372
  419         290.733         290.733         294.423         294.423         632.191         632.191
  420         291.100         291.100         294.471         294.471         632.915         632.915
  421         291.418         291.418         294.514         294.514         633.542         633.542
  422         291.688         291.688         294.552         294.552         634.073         634.073
  423         291.909         291.909         294.584         294.584         634.507         634.507
  424         292.081         292.081         294.609         294.609         634.845         634.845
  425         292.204         292.204         294.627         294.627         635.087         635.087
  426         292.278         292.278         294.639         294.639         635.232         635.232
  427         292.302         292.302         294.642         294.642         635.280         635.280
  428         290.319         290.319         296.691         296.691         635.230         635.230
  429         287.564         287.564         299.644         299.644         635.080         635.080
  430         284.808         284.808         302.729         302.729         634.830         634.830
  431         282.104         282.104         305.892         305.892         634.481         634.481
  432         279.464         279.464         309.122         309.122         634.034         634.034
  433         276.893         276.893         312.410         312.410         633.488         633.488
  434         274.395         274.395         315.755         315.755         632.845         632.845
  435         271.969         271.969         319.153         319.153         632.106         632.106
  436         269.619         269.619         322.600         322.600         631.273         631.273
  437         267.345         267.345         326.094         326.094         630.345         630.345
  438         265.147         265.147         329.632         329.632         629.326         629.326
  439         263.025         263.025         333.212         333.212         628.216         628.216
  440         260.981         260.981         336.831         336.831         627.018         627.018
  441         259.013         259.013         340.486         340.486         625.733         625.733
  442         257.123         257.123         344.174         344.174         624.364         624.364
  443         255.309         255.309         347.893         347.893         622.913         622.913
  444         253.571         253.571         351.639         351.639         621.381         621.381
  445         251.908         251.908         355.409         355.409         619.772         619.772
  446         250.320         250.320         359.201         359.201         618.089         618.089
  447         248.806         248.806         363.012         363.012         616.333         616.333
  448         247.364         247.364         366.838         366.838         614.509         614.509
  449         245.994         245.994         370.676         370.676         612.618         612.618
  450         244.694         244.694         374.523         374.523         610.665         610.665
  451         243.463         243.463         378.375         378.375         608.652         608.652
  452         242.299         242.299         382.230         382.230         606.583         606.583
  453         241.201         241.201         386.083         386.083         604.461         604.461
  454         240.167         240.167         389.931         389.931         602.291         602.291
  455         239.195         239.195         393.770         393.770         600.075         600.075
  456         238.283         238.283         397.596         397.596         597.819         597.819
  457         237.430         237.430         401.405         401.405         595.526         595.526
  458         236.634         236.634         405.193         405.193         593.201         593.201
  459         235.892         235.892         408.956         408.956         590.847         590.847
  460         235.203         235.203         412.688         412.688         588.471         588.471
  461         234.565         234.565         416.385         416.385         586.077         586.077
  462         233.976         233.976         420.041         420.041         583.671         583.671
  463         233.433         233.433         423.652         423.652         581.258         581.258
  464         232.935         232.935         427.211         427.211         578.844         578.844
  465         232.480         232.480         430.711         430.711         576.435         576.435
  466         232.066         232.066         434.145         434.145         574.040         574.040
  467         231.690         231.690         437.507         437.507         571.665         571.665
  468         231.351         231.351         440.787         440.787         569.318         569.318
  469         231.046         231.046         443.976         443.976         567.009         567.009
  470         230.775         230.775         447.065         447.065         564.748         564.748
  471         230.534         230.534         450.042         450.042         562.545         562.545
  472         230.322         230.322         452.895         452.895         560.413         560.413
  473         230.137         230.137         455.610         455.610         558.365         558.365
  474         229.978         229.978         458.173         458.173         556.414         556.414
  475         229.841         229.841         460.568         460.568         554.578         554.578
  476         229.726         229.726         462.777         462.777         552.871         552.871
  477         229.631         229.631         464.783         464.783         551.313         551.313
  478         229.554         229.554         466.566         466.566         549.920         549.920
  479         229.493         229.493         468.110         468.110         548.710         548.710
  480         229.446         229.446         469.397         469.397         547.699         547.699
  481         229.413         229.413         470.413         470.413         546.900         546.900
  482         229.391         229.391         471.147         471.147         546.323         546.323
  483         229.378         229.378         471.594         471.594         545.973         545.973
  484         229.374         229.374         471.752         471.752         545.849         545.849
  485         229.378         229.378         471.584         471.584         545.980         545.980
  486         229.387         229.387         471.150         471.150         546.312         546.312
  487         229.400         229.400         470.466         470.466         546.830         546.830
  488         229.416         229.416         469.550         469.550         547.513         547.513
  489         229.433         229.433         468.423         468.423         548.341         548.341
  490         229.452         229.452         467.106         467.106         549.290         549.290
  491         229.470         229.470         465.619         465.619         550.339         550.339
  492         229.487         229.487         463.981         463.981         551.467         551.467
  493         229.502         229.502         462.211         462.211         552.653         552.653
  494         229.515         229.515         460.325         460.325         553.881         553.881
  495         229.526         229.526         458.337         458.337         555.133         555.133
  496         229.533         229.533         456.261         456.261         556.394         556.394
  497         229.536         229.536         454.107         454.107         557.653         557.653
  498         229.536         229.536         451.885         451.885         558.897         558.897
  499         229.533         229.533         449.603         449.603         560.116         560.116
  500         229.525         229.525         447.270         447.270         561.302         561.302
  501         229.515         229.515         444.889         444.889         562.446         562.446
  502         229.501         229.501         442.468         442.468         563.540         563.540
  503         229.485         229.485         440.010         440.010         564.580         564.580
  504         229.467         229.467         437.519         437.519         565.558         565.558
  505         229.448         229.448         434.998         434.998         566.471         566.471
  506         229.428         229.428         432.451         432.451         567.313         567.313
  507         229.408         229.408         429.878         429.878         568.080         568.080
  508         229.389         229.389         427.283         427.283         568.769         568.769
  509         229.373         229.373         424.666         424.666         569.377         569.377
  510         229.360         229.360         422.030         422.030         569.900         569.900
  511         229.351         229.351         419.376         419.376         570.336         570.336
  512         229.348         229.348         416.704         416.704         570.682         570.682
  513         229.351         229.351         414.016         414.016         570.937         570.937
  514         229.362         229.362         411.312         411.312         571.097         571.097
  515         229.381         229.381         408.594         408.594         571.163         571.163
  516         229.410         229.410         405.862         405.862         571.131         571.131
  517         229.450         229.450         403.117         403.117         571.001         571.001
  518         229.501         229.501         400.360         400.360         570.771         570.771
  519         229.564         229.564         397.591         397.591         570.441         570.441
  520         229.639         229.639         394.813         394.813         570.009         570.009
  521         229.727         229.727         392.025         392.025         569.476         569.476
  522         229.829         229.829         389.228         389.228         568.840         568.840
  523         229.943         229.943         386.425         386.425         568.102         568.102
  524         230.069         230.069         383.616         383.616         567.262         567.262
  525         230.208         230.208         380.802         380.802         566.319         566.319
  526         230.357         230.357         377.986         377.986         565.274         565.274
  527         230.517         230.517         375.168         375.168         564.127         564.127
  528         230.684         230.684         372.351         372.351         562.881         562.881
  529         230.857         230.857         369.536         369.536         561.534         561.534
  530         231.034         231.034         366.726         366.726         560.090         560.090
  531         231.212         231.212         363.923         363.923         558.549         558.549
  532         231.387         231.387         361.130         361.130         556.913         556.913
  533         231.556         231.556         358.348         358.348         555.184         555.184
  534         231.716         231.716         355.580         355.580         553.365         553.365
  535         231.860         231.860         352.830         352.830         551.458         551.458
  536         231.986         231.986         350.099         350.099         549.466         549.466
  537         232.087         232.087         347.392         347.392         547.394         547.394
  538         232.158         232.158         344.710         344.710         545.243         545.243
  539         232.193         232.193         342.056         342.056         543.019         543.019
  540         232.186         232.186         339.433         339.433         540.725         540.725
  541         232.132         232.132         336.843         336.843         538.368         538.368
  542         232.022         232.022         334.288         334.288         535.951         535.951
  543         231.852         231.852         331.770         331.770         533.480         533.480
  544         231.616         231.616         329.290         329.290         530.962         530.962
  545         231.306         231.306         326.849         326.849         528.404         528.404
  546         230.919         230.919         324.445         324.445         525.811         525.811
  547         230.449         230.449         322.077         322.077         523.191         523.191
  548         229.892         229.892         319.744         319.744         520.553         520.553
  549         229.245         229.245         317.442         317.442         517.904         517.904
  550         228.505         228.505         315.166         315.166         515.253         515.253
  551         227.671         227.671         312.910         312.910         512.609         512.609
  552         226.743         226.743         310.667         310.667         509.981         509.981
  553         225.721         225.721         308.429         308.429         507.378         507.378
  554         224.608         224.608         306.187         306.187         504.811         504.811
  555         223.405         223.405         303.929         303.929         502.288         502.288
  556         222.118         222.118         301.646         301.646         499.819         499.819
  557         220.750         220.750         299.325         299.325         497.413         497.413
  558         219.308         219.308         296.954         296.954         495.081         495.081
  559         217.798         217.798         294.523         294.523         492.830         492.830
  560         216.226         216.226         292.019         292.019         490.668         490.668
  561         214.599         214.599         289.432         289.432         488.604         488.604
  562         212.924         212.924         286.751         286.751         486.643         486.643
  563         211.210         211.210         283.968         283.968         484.791         484.791
  564         209.462         209.462         281.076         281.076         483.053         483.053
  565         207.689         207.689         278.068         278.068         481.433         481.433
  566         205.897         205.897         274.940         274.940         479.932         479.932
  567         204.094         204.094         271.690         271.690         478.552         478.552
  568         202.286         202.286         268.318         268.318         477.292         477.292
  569         200.479         200.479         264.823         264.823         476.152         476.152
  570         198.681         198.681         261.211         261.211         475.130         475.130
  571         196.896         196.896         257.485         257.485         474.221         474.221
  572         195.130         195.130         253.652         253.652         473.422         473.422
  573         193.389         193.389         249.720         249.720         472.728         472.728
  574         191.678         191.678         245.700         245.700         472.133         472.133
  575         190.001         190.001         241.603         241.603         471.631         471.631
  576         188.362         188.362         237.442         237.442         471.215         471.215
  577         186.767         186.767         233.230         233.230         470.880         470.880
  578         185.218         185.218         228.984         228.984         470.617         470.617
  579         183.719         183.719         224.719         224.719         470.420         470.420
  580         182.274         182.274         220.454         220.454         470.282         470.282
  581         180.885         180.885         216.207         216.207         470.196         470.196
  582         179.557         179.557         211.999         211.999         470.155         470.155
  583         178.291         178.291         207.849         207.849         470.152         470.152
  584         177.090         177.090         203.779         203.779         470.182         470.182
  585         175.956         175.956         199.812         199.812         470.239         470.239
  586         174.891         174.891         195.972         195.972         470.316         470.316
  587         173.898         173.898         192.281         192.281         470.409         470.409
  588         172.978         172.978         188.764         188.764         470.512         470.512
  589         172.133         172.133         185.446         185.446         470.622         470.622
  590         171.364         171.364         182.351         182.351         470.733         470.733
  591         170.673         170.673         179.502         179.502         470.843         470.843
  592         170.060         170.060         176.924         176.924         470.948         470.948
  593         169.527         169.527         174.638         174.638         471.045         471.045
  594         169.075         169.075         172.665         172.665         471.131         471.131
  595         168.703         168.703         171.023         171.023         471.204         471.204
  596         168.414         168.414         169.729         169.729         471.263         471.263
  597         168.207         168.207         168.795         168.795         471.306         471.306
  598         168.083         168.083         168.230         168.230         471.333         471.333
  599         168.041         168.041         168.041         168.041         471.341         471.341
