============= Direct results (without any inter/extrapolation) ==================
 For present temperature (in Kelvin): T=   2000.000
   The cold contribution (in eV/atom): U_0 =   -1082.796
   The specific heat (in k_b/atom): C_v=     2.907
   The vibrational entropy (in k_b/atom): S_vib =     4.873
   The internal energy (in eV/atom): U_vib =     0.533
   The vibrational contribution (in eV/atom): F_vib = U_vib -T.S_vib =    -0.306
   The harmonic free energy (in eV/atom) -->  F_tot^HA = U_0 + F_vib =   -1083.103
   Useful quantities for melting :
      The mean square displacement (in a.u.): sqrt(<u^2>) =     0.271
      The <Omega^(-2)> factor (in THz^(-2)) =     0.010
      The Wigner-Seitz radius (in a.u.) : d_at =     4.048
      The average mass / proton-electron mass ratio (in a.u.) =    20.152
      The Lindemann constant : sqrt(<u^2>)/d_at =     0.067
      The integral of vDOS =     1.000
 
============= Harmonic Approximation (HA) ==================
   Note that the following results come from an EXTRAPOLATION:
     1/ F_vib^HA(T) is computed for each T using vDOS(T= 2000)
     2/ F_tot^HA(T) = F_vib^HA(T) + U_0
   T         F_vib^HA(T)   F_tot^HA(T)           C_v(T)         S_vib(T)        U_vib(T)        MSD(T)
   100           0.151       -1082.645           0.091           0.029           0.152           0.116
   200           0.151       -1082.646           0.533           0.213           0.154           0.121
   300           0.147       -1082.649           1.091           0.535           0.161           0.129
   400           0.141       -1082.655           1.570           0.917           0.173           0.138
   500           0.132       -1082.665           1.924           1.308           0.188           0.148
   600           0.119       -1082.678           2.176           1.682           0.206           0.158
   700           0.103       -1082.694           2.355           2.032           0.225           0.168
   800           0.084       -1082.713           2.485           2.355           0.246           0.177
   900           0.062       -1082.734           2.580           2.653           0.268           0.187
  1000           0.038       -1082.758           2.652           2.929           0.291           0.195
  1100           0.012       -1082.785           2.708           3.185           0.314           0.204
  1200          -0.017       -1082.813           2.751           3.422           0.337           0.212
  1300          -0.047       -1082.843           2.786           3.644           0.361           0.220
  1400          -0.080       -1082.876           2.814           3.851           0.385           0.228
  1500          -0.114       -1082.910           2.837           4.046           0.409           0.236
  1600          -0.149       -1082.946           2.856           4.230           0.434           0.243
  1700          -0.186       -1082.983           2.872           4.404           0.459           0.250
  1800          -0.225       -1083.021           2.885           4.568           0.484           0.257
  1900          -0.265       -1083.061           2.897           4.725           0.508           0.264
  2000          -0.306       -1083.103           2.907           4.873           0.533           0.271
  2100          -0.349       -1083.145           2.915           5.015           0.559           0.277
  2200          -0.393       -1083.189           2.922           5.151           0.584           0.284
  2300          -0.438       -1083.234           2.929           5.281           0.609           0.290
  2400          -0.484       -1083.280           2.935           5.406           0.634           0.296
  2500          -0.531       -1083.327           2.940           5.526           0.659           0.302
  2600          -0.579       -1083.375           2.944           5.641           0.685           0.308
  2700          -0.628       -1083.425           2.948           5.753           0.710           0.313
  2800          -0.678       -1083.475           2.952           5.860           0.736           0.319
  2900          -0.729       -1083.526           2.955           5.963           0.761           0.325
  3000          -0.781       -1083.577           2.958           6.064           0.787           0.330
  3100          -0.834       -1083.630           2.961           6.161           0.812           0.336
  3200          -0.887       -1083.684           2.963           6.255           0.838           0.341
  3300          -0.942       -1083.738           2.965           6.346           0.863           0.346
  3400          -0.997       -1083.793           2.967           6.435           0.889           0.351
  3500          -1.052       -1083.849           2.969           6.521           0.914           0.356
  3600          -1.109       -1083.905           2.971           6.604           0.940           0.361
  3700          -1.166       -1083.963           2.972           6.686           0.965           0.366
  3800          -1.224       -1084.020           2.974           6.765           0.991           0.371
  3900          -1.283       -1084.079           2.975           6.842           1.017           0.376
  4000          -1.342       -1084.138           2.976           6.918           1.042           0.381
  4100          -1.402       -1084.198           2.977           6.991           1.068           0.385
  4200          -1.463       -1084.259           2.978           7.063           1.094           0.390
  4300          -1.524       -1084.320           2.979           7.133           1.119           0.395
  4400          -1.586       -1084.382           2.980           7.201           1.145           0.399
  4500          -1.648       -1084.444           2.981           7.268           1.171           0.404
  4600          -1.711       -1084.507           2.982           7.334           1.196           0.408
  4700          -1.774       -1084.571           2.983           7.398           1.222           0.412
  4800          -1.838       -1084.635           2.983           7.461           1.248           0.417
  4900          -1.903       -1084.699           2.984           7.522           1.273           0.421
  5000          -1.968       -1084.764           2.985           7.583           1.299           0.425
  5100          -2.034       -1084.830           2.985           7.642           1.325           0.430
  5200          -2.100       -1084.896           2.986           7.700           1.351           0.434
  5300          -2.166       -1084.962           2.986           7.757           1.376           0.438
  5400          -2.233       -1085.030           2.987           7.812           1.402           0.442
  5500          -2.301       -1085.097           2.987           7.867           1.428           0.446
  5600          -2.369       -1085.165           2.988           7.921           1.454           0.450
  5700          -2.437       -1085.234           2.988           7.974           1.479           0.454
  5800          -2.506       -1085.303           2.989           8.026           1.505           0.458
  5900          -2.576       -1085.372           2.989           8.077           1.531           0.462
  6000          -2.646       -1085.442           2.989           8.127           1.557           0.466
  6100          -2.716       -1085.512           2.990           8.177           1.582           0.470
  6200          -2.786       -1085.583           2.990           8.225           1.608           0.473
  6300          -2.858       -1085.654           2.990           8.273           1.634           0.477
  6400          -2.929       -1085.725           2.991           8.320           1.660           0.481
  6500          -3.001       -1085.797           2.991           8.367           1.685           0.485
  6600          -3.073       -1085.869           2.991           8.412           1.711           0.488
  6700          -3.146       -1085.942           2.991           8.457           1.737           0.492
  6800          -3.219       -1086.015           2.992           8.502           1.763           0.496
  6900          -3.292       -1086.089           2.992           8.545           1.789           0.499
  7000          -3.366       -1086.163           2.992           8.588           1.814           0.503
  7100          -3.440       -1086.237           2.992           8.631           1.840           0.507
  7200          -3.515       -1086.311           2.993           8.673           1.866           0.510
  7300          -3.590       -1086.386           2.993           8.714           1.892           0.514
  7400          -3.665       -1086.461           2.993           8.755           1.918           0.517
  7500          -3.741       -1086.537           2.993           8.795           1.943           0.521
  7600          -3.817       -1086.613           2.993           8.834           1.969           0.524
  7700          -3.893       -1086.689           2.994           8.874           1.995           0.528
  7800          -3.970       -1086.766           2.994           8.912           2.021           0.531
  7900          -4.047       -1086.843           2.994           8.950           2.046           0.534
  8000          -4.124       -1086.920           2.994           8.988           2.072           0.538
  8100          -4.202       -1086.998           2.994           9.025           2.098           0.541
  8200          -4.279       -1087.076           2.994           9.062           2.124           0.544
  8300          -4.358       -1087.154           2.994           9.098           2.150           0.548
  8400          -4.436       -1087.233           2.995           9.134           2.176           0.551
  8500          -4.515       -1087.311           2.995           9.170           2.201           0.554
  8600          -4.594       -1087.391           2.995           9.205           2.227           0.557
  8700          -4.674       -1087.470           2.995           9.239           2.253           0.561
  8800          -4.754       -1087.550           2.995           9.273           2.279           0.564
  8900          -4.834       -1087.630           2.995           9.307           2.305           0.567
  9000          -4.914       -1087.710           2.995           9.341           2.330           0.570
  9100          -4.995       -1087.791           2.995           9.374           2.356           0.573
  9200          -5.076       -1087.872           2.995           9.407           2.382           0.577
  9300          -5.157       -1087.953           2.996           9.439           2.408           0.580
  9400          -5.238       -1088.034           2.996           9.471           2.434           0.583
  9500          -5.320       -1088.116           2.996           9.503           2.459           0.586
  9600          -5.402       -1088.198           2.996           9.534           2.485           0.589
  9700          -5.484       -1088.281           2.996           9.565           2.511           0.592
  9800          -5.567       -1088.363           2.996           9.596           2.537           0.595
  9900          -5.650       -1088.446           2.996           9.626           2.563           0.598
 10000          -5.733       -1088.529           2.996           9.656           2.589           0.601
