#   T(K)    C_v(k_B/fu)        Gamma     alpha_v*10^6(K^-1)   E_th(eV)                       P_th(GPa)
#                                                                         ----------------------------------------------
#                                                                          {sum G_i.U_iV}  {int G.C_v/V dT}    {G.U/V}
# ----------------------------------------------------------------------------------------------------------------------
    10           0.046           0.000           0.000           0.019           0.000           0.000           0.000
    20           0.335           0.000           0.000           0.019           0.000           0.000           0.000
    30           0.792           0.000           0.000           0.019           0.000           0.000           0.000
    40           1.232           0.000           0.000           0.020           0.000           0.000           0.000
    50           1.596           0.000           0.000           0.022           0.000           0.000           0.000
    60           1.879           0.000           0.000           0.023           0.000           0.000           0.000
    70           2.095           0.000           0.000           0.025           0.000           0.000           0.000
    80           2.260           0.000           0.000           0.027           0.000           0.000           0.000
    90           2.387           0.000           0.000           0.029           0.000           0.000           0.000
   100           2.486           0.000           0.000           0.031           0.000           0.000           0.000
   110           2.563           0.000           0.000           0.033           0.000           0.000           0.000
   120           2.625           0.000           0.000           0.035           0.000           0.000           0.000
   130           2.675           0.000           0.000           0.037           0.000           0.000           0.000
   140           2.716           0.000           0.000           0.040           0.000           0.000           0.000
   150           2.750           0.000           0.000           0.042           0.000           0.000           0.000
   160           2.779           0.000           0.000           0.045           0.000           0.000           0.000
   170           2.802           0.000           0.000           0.047           0.000           0.000           0.000
   180           2.823           0.000           0.000           0.049           0.000           0.000           0.000
   190           2.840           0.000           0.000           0.052           0.000           0.000           0.000
   200           2.855           0.000           0.000           0.054           0.000           0.000           0.000
   210           2.868           0.000           0.000           0.057           0.000           0.000           0.000
   220           2.879           0.000           0.000           0.059           0.000           0.000           0.000
   230           2.889           0.000           0.000           0.062           0.000           0.000           0.000
   240           2.898           0.000           0.000           0.064           0.000           0.000           0.000
   250           2.906           0.000           0.000           0.067           0.000           0.000           0.000
   260           2.913           0.000           0.000           0.069           0.000           0.000           0.000
   270           2.919           0.000           0.000           0.072           0.000           0.000           0.000
   280           2.924           0.000           0.000           0.074           0.000           0.000           0.000
   290           2.929           0.000           0.000           0.077           0.000           0.000           0.000
   300           2.934           0.000           0.000           0.079           0.000           0.000           0.000
   310           2.938           0.000           0.000           0.082           0.000           0.000           0.000
   320           2.942           0.000           0.000           0.084           0.000           0.000           0.000
   330           2.945           0.000           0.000           0.087           0.000           0.000           0.000
   340           2.948           0.000           0.000           0.089           0.000           0.000           0.000
   350           2.951           0.000           0.000           0.092           0.000           0.000           0.000
   360           2.954           0.000           0.000           0.095           0.000           0.000           0.000
   370           2.956           0.000           0.000           0.097           0.000           0.000           0.000
   380           2.959           0.000           0.000           0.100           0.000           0.000           0.000
   390           2.961           0.000           0.000           0.102           0.000           0.000           0.000
   400           2.963           0.000           0.000           0.105           0.000           0.000           0.000
   410           2.964           0.000           0.000           0.107           0.000           0.000           0.000
   420           2.966           0.000           0.000           0.110           0.000           0.000           0.000
   430           2.968           0.000           0.000           0.112           0.000           0.000           0.000
   440           2.969           0.000           0.000           0.115           0.000           0.000           0.000
   450           2.970           0.000           0.000           0.117           0.000           0.000           0.000
   460           2.972           0.000           0.000           0.120           0.000           0.000           0.000
   470           2.973           0.000           0.000           0.123           0.000           0.000           0.000
   480           2.974           0.000           0.000           0.125           0.000           0.000           0.000
   490           2.975           0.000           0.000           0.128           0.000           0.000           0.000
   500           2.976           0.000           0.000           0.130           0.000           0.000           0.000
   510           2.977           0.000           0.000           0.133           0.000           0.000           0.000
   520           2.978           0.000           0.000           0.135           0.000           0.000           0.000
   530           2.979           0.000           0.000           0.138           0.000           0.000           0.000
   540           2.979           0.000           0.000           0.141           0.000           0.000           0.000
   550           2.980           0.000           0.000           0.143           0.000           0.000           0.000
   560           2.981           0.000           0.000           0.146           0.000           0.000           0.000
   570           2.981           0.000           0.000           0.148           0.000           0.000           0.000
   580           2.982           0.000           0.000           0.151           0.000           0.000           0.000
   590           2.983           0.000           0.000           0.153           0.000           0.000           0.000
   600           2.983           0.000           0.000           0.156           0.000           0.000           0.000
   610           2.984           0.000           0.000           0.159           0.000           0.000           0.000
   620           2.984           0.000           0.000           0.161           0.000           0.000           0.000
   630           2.985           0.000           0.000           0.164           0.000           0.000           0.000
   640           2.985           0.000           0.000           0.166           0.000           0.000           0.000
   650           2.986           0.000           0.000           0.169           0.000           0.000           0.000
   660           2.986           0.000           0.000           0.171           0.000           0.000           0.000
   670           2.987           0.000           0.000           0.174           0.000           0.000           0.000
   680           2.987           0.000           0.000           0.177           0.000           0.000           0.000
   690           2.987           0.000           0.000           0.179           0.000           0.000           0.000
   700           2.988           0.000           0.000           0.182           0.000           0.000           0.000
   710           2.988           0.000           0.000           0.184           0.000           0.000           0.000
   720           2.988           0.000           0.000           0.187           0.000           0.000           0.000
   730           2.989           0.000           0.000           0.189           0.000           0.000           0.000
   740           2.989           0.000           0.000           0.192           0.000           0.000           0.000
   750           2.989           0.000           0.000           0.195           0.000           0.000           0.000
   760           2.990           0.000           0.000           0.197           0.000           0.000           0.000
   770           2.990           0.000           0.000           0.200           0.000           0.000           0.000
   780           2.990           0.000           0.000           0.202           0.000           0.000           0.000
   790           2.990           0.000           0.000           0.205           0.000           0.000           0.000
   800           2.991           0.000           0.000           0.207           0.000           0.000           0.000
   810           2.991           0.000           0.000           0.210           0.000           0.000           0.000
   820           2.991           0.000           0.000           0.213           0.000           0.000           0.000
   830           2.991           0.000           0.000           0.215           0.000           0.000           0.000
   840           2.991           0.000           0.000           0.218           0.000           0.000           0.000
   850           2.992           0.000           0.000           0.220           0.000           0.000           0.000
   860           2.992           0.000           0.000           0.223           0.000           0.000           0.000
   870           2.992           0.000           0.000           0.226           0.000           0.000           0.000
   880           2.992           0.000           0.000           0.228           0.000           0.000           0.000
   890           2.992           0.000           0.000           0.231           0.000           0.000           0.000
   900           2.993           0.000           0.000           0.233           0.000           0.000           0.000
   910           2.993           0.000           0.000           0.236           0.000           0.000           0.000
   920           2.993           0.000           0.000           0.238           0.000           0.000           0.000
   930           2.993           0.000           0.000           0.241           0.000           0.000           0.000
   940           2.993           0.000           0.000           0.244           0.000           0.000           0.000
   950           2.993           0.000           0.000           0.246           0.000           0.000           0.000
   960           2.993           0.000           0.000           0.249           0.000           0.000           0.000
   970           2.994           0.000           0.000           0.251           0.000           0.000           0.000
   980           2.994           0.000           0.000           0.254           0.000           0.000           0.000
   990           2.994           0.000           0.000           0.256           0.000           0.000           0.000
  1000           2.994           0.000           0.000           0.259           0.000           0.000           0.000
  1010           2.994           0.000           0.000           0.262           0.000           0.000           0.000
  1020           2.994           0.000           0.000           0.264           0.000           0.000           0.000
  1030           2.994           0.000           0.000           0.267           0.000           0.000           0.000
  1040           2.994           0.000           0.000           0.269           0.000           0.000           0.000
  1050           2.995           0.000           0.000           0.272           0.000           0.000           0.000
  1060           2.995           0.000           0.000           0.275           0.000           0.000           0.000
  1070           2.995           0.000           0.000           0.277           0.000           0.000           0.000
  1080           2.995           0.000           0.000           0.280           0.000           0.000           0.000
  1090           2.995           0.000           0.000           0.282           0.000           0.000           0.000
  1100           2.995           0.000           0.000           0.285           0.000           0.000           0.000
  1110           2.995           0.000           0.000           0.287           0.000           0.000           0.000
  1120           2.995           0.000           0.000           0.290           0.000           0.000           0.000
  1130           2.995           0.000           0.000           0.293           0.000           0.000           0.000
  1140           2.995           0.000           0.000           0.295           0.000           0.000           0.000
  1150           2.995           0.000           0.000           0.298           0.000           0.000           0.000
  1160           2.995           0.000           0.000           0.300           0.000           0.000           0.000
  1170           2.996           0.000           0.000           0.303           0.000           0.000           0.000
  1180           2.996           0.000           0.000           0.305           0.000           0.000           0.000
  1190           2.996           0.000           0.000           0.308           0.000           0.000           0.000
  1200           2.996           0.000           0.000           0.311           0.000           0.000           0.000
  1210           2.996           0.000           0.000           0.313           0.000           0.000           0.000
  1220           2.996           0.000           0.000           0.316           0.000           0.000           0.000
  1230           2.996           0.000           0.000           0.318           0.000           0.000           0.000
  1240           2.996           0.000           0.000           0.321           0.000           0.000           0.000
  1250           2.996           0.000           0.000           0.324           0.000           0.000           0.000
  1260           2.996           0.000           0.000           0.326           0.000           0.000           0.000
  1270           2.996           0.000           0.000           0.329           0.000           0.000           0.000
  1280           2.996           0.000           0.000           0.331           0.000           0.000           0.000
  1290           2.996           0.000           0.000           0.334           0.000           0.000           0.000
  1300           2.996           0.000           0.000           0.336           0.000           0.000           0.000
  1310           2.996           0.000           0.000           0.339           0.000           0.000           0.000
  1320           2.997           0.000           0.000           0.342           0.000           0.000           0.000
  1330           2.997           0.000           0.000           0.344           0.000           0.000           0.000
  1340           2.997           0.000           0.000           0.347           0.000           0.000           0.000
  1350           2.997           0.000           0.000           0.349           0.000           0.000           0.000
  1360           2.997           0.000           0.000           0.352           0.000           0.000           0.000
  1370           2.997           0.000           0.000           0.355           0.000           0.000           0.000
  1380           2.997           0.000           0.000           0.357           0.000           0.000           0.000
  1390           2.997           0.000           0.000           0.360           0.000           0.000           0.000
  1400           2.997           0.000           0.000           0.362           0.000           0.000           0.000
  1410           2.997           0.000           0.000           0.365           0.000           0.000           0.000
  1420           2.997           0.000           0.000           0.367           0.000           0.000           0.000
  1430           2.997           0.000           0.000           0.370           0.000           0.000           0.000
  1440           2.997           0.000           0.000           0.373           0.000           0.000           0.000
  1450           2.997           0.000           0.000           0.375           0.000           0.000           0.000
  1460           2.997           0.000           0.000           0.378           0.000           0.000           0.000
  1470           2.997           0.000           0.000           0.380           0.000           0.000           0.000
  1480           2.997           0.000           0.000           0.383           0.000           0.000           0.000
  1490           2.997           0.000           0.000           0.386           0.000           0.000           0.000
  1500           2.997           0.000           0.000           0.388           0.000           0.000           0.000
  1510           2.997           0.000           0.000           0.391           0.000           0.000           0.000
  1520           2.997           0.000           0.000           0.393           0.000           0.000           0.000
  1530           2.997           0.000           0.000           0.396           0.000           0.000           0.000
  1540           2.997           0.000           0.000           0.398           0.000           0.000           0.000
  1550           2.997           0.000           0.000           0.401           0.000           0.000           0.000
  1560           2.998           0.000           0.000           0.404           0.000           0.000           0.000
  1570           2.998           0.000           0.000           0.406           0.000           0.000           0.000
  1580           2.998           0.000           0.000           0.409           0.000           0.000           0.000
  1590           2.998           0.000           0.000           0.411           0.000           0.000           0.000
  1600           2.998           0.000           0.000           0.414           0.000           0.000           0.000
  1610           2.998           0.000           0.000           0.417           0.000           0.000           0.000
  1620           2.998           0.000           0.000           0.419           0.000           0.000           0.000
  1630           2.998           0.000           0.000           0.422           0.000           0.000           0.000
  1640           2.998           0.000           0.000           0.424           0.000           0.000           0.000
  1650           2.998           0.000           0.000           0.427           0.000           0.000           0.000
  1660           2.998           0.000           0.000           0.429           0.000           0.000           0.000
  1670           2.998           0.000           0.000           0.432           0.000           0.000           0.000
  1680           2.998           0.000           0.000           0.435           0.000           0.000           0.000
  1690           2.998           0.000           0.000           0.437           0.000           0.000           0.000
  1700           2.998           0.000           0.000           0.440           0.000           0.000           0.000
  1710           2.998           0.000           0.000           0.442           0.000           0.000           0.000
  1720           2.998           0.000           0.000           0.445           0.000           0.000           0.000
  1730           2.998           0.000           0.000           0.448           0.000           0.000           0.000
  1740           2.998           0.000           0.000           0.450           0.000           0.000           0.000
  1750           2.998           0.000           0.000           0.453           0.000           0.000           0.000
  1760           2.998           0.000           0.000           0.455           0.000           0.000           0.000
  1770           2.998           0.000           0.000           0.458           0.000           0.000           0.000
  1780           2.998           0.000           0.000           0.460           0.000           0.000           0.000
  1790           2.998           0.000           0.000           0.463           0.000           0.000           0.000
  1800           2.998           0.000           0.000           0.466           0.000           0.000           0.000
  1810           2.998           0.000           0.000           0.468           0.000           0.000           0.000
  1820           2.998           0.000           0.000           0.471           0.000           0.000           0.000
  1830           2.998           0.000           0.000           0.473           0.000           0.000           0.000
  1840           2.998           0.000           0.000           0.476           0.000           0.000           0.000
  1850           2.998           0.000           0.000           0.479           0.000           0.000           0.000
  1860           2.998           0.000           0.000           0.481           0.000           0.000           0.000
  1870           2.998           0.000           0.000           0.484           0.000           0.000           0.000
  1880           2.998           0.000           0.000           0.486           0.000           0.000           0.000
  1890           2.998           0.000           0.000           0.489           0.000           0.000           0.000
  1900           2.998           0.000           0.000           0.491           0.000           0.000           0.000
  1910           2.998           0.000           0.000           0.494           0.000           0.000           0.000
  1920           2.998           0.000           0.000           0.497           0.000           0.000           0.000
  1930           2.998           0.000           0.000           0.499           0.000           0.000           0.000
  1940           2.998           0.000           0.000           0.502           0.000           0.000           0.000
  1950           2.998           0.000           0.000           0.504           0.000           0.000           0.000
  1960           2.998           0.000           0.000           0.507           0.000           0.000           0.000
  1970           2.998           0.000           0.000           0.510           0.000           0.000           0.000
  1980           2.998           0.000           0.000           0.512           0.000           0.000           0.000
  1990           2.998           0.000           0.000           0.515           0.000           0.000           0.000
  2000           2.998           0.000           0.000           0.517           0.000           0.000           0.000
  2010           2.998           0.000           0.000           0.520           0.000           0.000           0.000
  2020           2.999           0.000           0.000           0.522           0.000           0.000           0.000
  2030           2.999           0.000           0.000           0.525           0.000           0.000           0.000
  2040           2.999           0.000           0.000           0.528           0.000           0.000           0.000
  2050           2.999           0.000           0.000           0.530           0.000           0.000           0.000
  2060           2.999           0.000           0.000           0.533           0.000           0.000           0.000
  2070           2.999           0.000           0.000           0.535           0.000           0.000           0.000
  2080           2.999           0.000           0.000           0.538           0.000           0.000           0.000
  2090           2.999           0.000           0.000           0.541           0.000           0.000           0.000
  2100           2.999           0.000           0.000           0.543           0.000           0.000           0.000
  2110           2.999           0.000           0.000           0.546           0.000           0.000           0.000
  2120           2.999           0.000           0.000           0.548           0.000           0.000           0.000
  2130           2.999           0.000           0.000           0.551           0.000           0.000           0.000
  2140           2.999           0.000           0.000           0.553           0.000           0.000           0.000
  2150           2.999           0.000           0.000           0.556           0.000           0.000           0.000
  2160           2.999           0.000           0.000           0.559           0.000           0.000           0.000
  2170           2.999           0.000           0.000           0.561           0.000           0.000           0.000
  2180           2.999           0.000           0.000           0.564           0.000           0.000           0.000
  2190           2.999           0.000           0.000           0.566           0.000           0.000           0.000
  2200           2.999           0.000           0.000           0.569           0.000           0.000           0.000
  2210           2.999           0.000           0.000           0.572           0.000           0.000           0.000
  2220           2.999           0.000           0.000           0.574           0.000           0.000           0.000
  2230           2.999           0.000           0.000           0.577           0.000           0.000           0.000
  2240           2.999           0.000           0.000           0.579           0.000           0.000           0.000
  2250           2.999           0.000           0.000           0.582           0.000           0.000           0.000
  2260           2.999           0.000           0.000           0.584           0.000           0.000           0.000
  2270           2.999           0.000           0.000           0.587           0.000           0.000           0.000
  2280           2.999           0.000           0.000           0.590           0.000           0.000           0.000
  2290           2.999           0.000           0.000           0.592           0.000           0.000           0.000
  2300           2.999           0.000           0.000           0.595           0.000           0.000           0.000
  2310           2.999           0.000           0.000           0.597           0.000           0.000           0.000
  2320           2.999           0.000           0.000           0.600           0.000           0.000           0.000
  2330           2.999           0.000           0.000           0.603           0.000           0.000           0.000
  2340           2.999           0.000           0.000           0.605           0.000           0.000           0.000
  2350           2.999           0.000           0.000           0.608           0.000           0.000           0.000
  2360           2.999           0.000           0.000           0.610           0.000           0.000           0.000
  2370           2.999           0.000           0.000           0.613           0.000           0.000           0.000
  2380           2.999           0.000           0.000           0.615           0.000           0.000           0.000
  2390           2.999           0.000           0.000           0.618           0.000           0.000           0.000
  2400           2.999           0.000           0.000           0.621           0.000           0.000           0.000
  2410           2.999           0.000           0.000           0.623           0.000           0.000           0.000
  2420           2.999           0.000           0.000           0.626           0.000           0.000           0.000
  2430           2.999           0.000           0.000           0.628           0.000           0.000           0.000
  2440           2.999           0.000           0.000           0.631           0.000           0.000           0.000
  2450           2.999           0.000           0.000           0.634           0.000           0.000           0.000
  2460           2.999           0.000           0.000           0.636           0.000           0.000           0.000
  2470           2.999           0.000           0.000           0.639           0.000           0.000           0.000
  2480           2.999           0.000           0.000           0.641           0.000           0.000           0.000
  2490           2.999           0.000           0.000           0.644           0.000           0.000           0.000
  2500           2.999           0.000           0.000           0.647           0.000           0.000           0.000
  2510           2.999           0.000           0.000           0.649           0.000           0.000           0.000
  2520           2.999           0.000           0.000           0.652           0.000           0.000           0.000
  2530           2.999           0.000           0.000           0.654           0.000           0.000           0.000
  2540           2.999           0.000           0.000           0.657           0.000           0.000           0.000
  2550           2.999           0.000           0.000           0.659           0.000           0.000           0.000
  2560           2.999           0.000           0.000           0.662           0.000           0.000           0.000
  2570           2.999           0.000           0.000           0.665           0.000           0.000           0.000
  2580           2.999           0.000           0.000           0.667           0.000           0.000           0.000
  2590           2.999           0.000           0.000           0.670           0.000           0.000           0.000
  2600           2.999           0.000           0.000           0.672           0.000           0.000           0.000
  2610           2.999           0.000           0.000           0.675           0.000           0.000           0.000
  2620           2.999           0.000           0.000           0.678           0.000           0.000           0.000
  2630           2.999           0.000           0.000           0.680           0.000           0.000           0.000
  2640           2.999           0.000           0.000           0.683           0.000           0.000           0.000
  2650           2.999           0.000           0.000           0.685           0.000           0.000           0.000
  2660           2.999           0.000           0.000           0.688           0.000           0.000           0.000
  2670           2.999           0.000           0.000           0.690           0.000           0.000           0.000
  2680           2.999           0.000           0.000           0.693           0.000           0.000           0.000
  2690           2.999           0.000           0.000           0.696           0.000           0.000           0.000
  2700           2.999           0.000           0.000           0.698           0.000           0.000           0.000
  2710           2.999           0.000           0.000           0.701           0.000           0.000           0.000
  2720           2.999           0.000           0.000           0.703           0.000           0.000           0.000
  2730           2.999           0.000           0.000           0.706           0.000           0.000           0.000
  2740           2.999           0.000           0.000           0.709           0.000           0.000           0.000
  2750           2.999           0.000           0.000           0.711           0.000           0.000           0.000
  2760           2.999           0.000           0.000           0.714           0.000           0.000           0.000
  2770           2.999           0.000           0.000           0.716           0.000           0.000           0.000
  2780           2.999           0.000           0.000           0.719           0.000           0.000           0.000
  2790           2.999           0.000           0.000           0.721           0.000           0.000           0.000
  2800           2.999           0.000           0.000           0.724           0.000           0.000           0.000
  2810           2.999           0.000           0.000           0.727           0.000           0.000           0.000
  2820           2.999           0.000           0.000           0.729           0.000           0.000           0.000
  2830           2.999           0.000           0.000           0.732           0.000           0.000           0.000
  2840           2.999           0.000           0.000           0.734           0.000           0.000           0.000
  2850           2.999           0.000           0.000           0.737           0.000           0.000           0.000
  2860           2.999           0.000           0.000           0.740           0.000           0.000           0.000
  2870           2.999           0.000           0.000           0.742           0.000           0.000           0.000
  2880           2.999           0.000           0.000           0.745           0.000           0.000           0.000
  2890           2.999           0.000           0.000           0.747           0.000           0.000           0.000
  2900           2.999           0.000           0.000           0.750           0.000           0.000           0.000
  2910           2.999           0.000           0.000           0.752           0.000           0.000           0.000
  2920           2.999           0.000           0.000           0.755           0.000           0.000           0.000
  2930           2.999           0.000           0.000           0.758           0.000           0.000           0.000
  2940           2.999           0.000           0.000           0.760           0.000           0.000           0.000
  2950           2.999           0.000           0.000           0.763           0.000           0.000           0.000
  2960           2.999           0.000           0.000           0.765           0.000           0.000           0.000
  2970           2.999           0.000           0.000           0.768           0.000           0.000           0.000
  2980           2.999           0.000           0.000           0.771           0.000           0.000           0.000
  2990           2.999           0.000           0.000           0.773           0.000           0.000           0.000
  3000           2.999           0.000           0.000           0.776           0.000           0.000           0.000
  3010           2.999           0.000           0.000           0.778           0.000           0.000           0.000
  3020           2.999           0.000           0.000           0.781           0.000           0.000           0.000
  3030           2.999           0.000           0.000           0.783           0.000           0.000           0.000
  3040           2.999           0.000           0.000           0.786           0.000           0.000           0.000
  3050           2.999           0.000           0.000           0.789           0.000           0.000           0.000
  3060           2.999           0.000           0.000           0.791           0.000           0.000           0.000
  3070           2.999           0.000           0.000           0.794           0.000           0.000           0.000
  3080           2.999           0.000           0.000           0.796           0.000           0.000           0.000
  3090           2.999           0.000           0.000           0.799           0.000           0.000           0.000
  3100           2.999           0.000           0.000           0.802           0.000           0.000           0.000
  3110           2.999           0.000           0.000           0.804           0.000           0.000           0.000
  3120           2.999           0.000           0.000           0.807           0.000           0.000           0.000
  3130           2.999           0.000           0.000           0.809           0.000           0.000           0.000
  3140           2.999           0.000           0.000           0.812           0.000           0.000           0.000
  3150           2.999           0.000           0.000           0.815           0.000           0.000           0.000
  3160           2.999           0.000           0.000           0.817           0.000           0.000           0.000
  3170           2.999           0.000           0.000           0.820           0.000           0.000           0.000
  3180           2.999           0.000           0.000           0.822           0.000           0.000           0.000
  3190           2.999           0.000           0.000           0.825           0.000           0.000           0.000
  3200           2.999           0.000           0.000           0.827           0.000           0.000           0.000
  3210           2.999           0.000           0.000           0.830           0.000           0.000           0.000
  3220           2.999           0.000           0.000           0.833           0.000           0.000           0.000
  3230           2.999           0.000           0.000           0.835           0.000           0.000           0.000
  3240           2.999           0.000           0.000           0.838           0.000           0.000           0.000
  3250           2.999           0.000           0.000           0.840           0.000           0.000           0.000
  3260           2.999           0.000           0.000           0.843           0.000           0.000           0.000
  3270           2.999           0.000           0.000           0.846           0.000           0.000           0.000
  3280           2.999           0.000           0.000           0.848           0.000           0.000           0.000
  3290           2.999           0.000           0.000           0.851           0.000           0.000           0.000
  3300           2.999           0.000           0.000           0.853           0.000           0.000           0.000
  3310           2.999           0.000           0.000           0.856           0.000           0.000           0.000
  3320           2.999           0.000           0.000           0.858           0.000           0.000           0.000
  3330           2.999           0.000           0.000           0.861           0.000           0.000           0.000
  3340           2.999           0.000           0.000           0.864           0.000           0.000           0.000
  3350           2.999           0.000           0.000           0.866           0.000           0.000           0.000
  3360           2.999           0.000           0.000           0.869           0.000           0.000           0.000
  3370           2.999           0.000           0.000           0.871           0.000           0.000           0.000
  3380           2.999           0.000           0.000           0.874           0.000           0.000           0.000
  3390           2.999           0.000           0.000           0.877           0.000           0.000           0.000
  3400           2.999           0.000           0.000           0.879           0.000           0.000           0.000
  3410           2.999           0.000           0.000           0.882           0.000           0.000           0.000
  3420           2.999           0.000           0.000           0.884           0.000           0.000           0.000
  3430           2.999           0.000           0.000           0.887           0.000           0.000           0.000
  3440           2.999           0.000           0.000           0.889           0.000           0.000           0.000
  3450           2.999           0.000           0.000           0.892           0.000           0.000           0.000
  3460           2.999           0.000           0.000           0.895           0.000           0.000           0.000
  3470           2.999           0.000           0.000           0.897           0.000           0.000           0.000
  3480           2.999           0.000           0.000           0.900           0.000           0.000           0.000
  3490           3.000           0.000           0.000           0.902           0.000           0.000           0.000
  3500           3.000           0.000           0.000           0.905           0.000           0.000           0.000
  3510           3.000           0.000           0.000           0.908           0.000           0.000           0.000
  3520           3.000           0.000           0.000           0.910           0.000           0.000           0.000
  3530           3.000           0.000           0.000           0.913           0.000           0.000           0.000
  3540           3.000           0.000           0.000           0.915           0.000           0.000           0.000
  3550           3.000           0.000           0.000           0.918           0.000           0.000           0.000
  3560           3.000           0.000           0.000           0.920           0.000           0.000           0.000
  3570           3.000           0.000           0.000           0.923           0.000           0.000           0.000
  3580           3.000           0.000           0.000           0.926           0.000           0.000           0.000
  3590           3.000           0.000           0.000           0.928           0.000           0.000           0.000
  3600           3.000           0.000           0.000           0.931           0.000           0.000           0.000
  3610           3.000           0.000           0.000           0.933           0.000           0.000           0.000
  3620           3.000           0.000           0.000           0.936           0.000           0.000           0.000
  3630           3.000           0.000           0.000           0.939           0.000           0.000           0.000
  3640           3.000           0.000           0.000           0.941           0.000           0.000           0.000
  3650           3.000           0.000           0.000           0.944           0.000           0.000           0.000
  3660           3.000           0.000           0.000           0.946           0.000           0.000           0.000
  3670           3.000           0.000           0.000           0.949           0.000           0.000           0.000
  3680           3.000           0.000           0.000           0.951           0.000           0.000           0.000
  3690           3.000           0.000           0.000           0.954           0.000           0.000           0.000
  3700           3.000           0.000           0.000           0.957           0.000           0.000           0.000
  3710           3.000           0.000           0.000           0.959           0.000           0.000           0.000
  3720           3.000           0.000           0.000           0.962           0.000           0.000           0.000
  3730           3.000           0.000           0.000           0.964           0.000           0.000           0.000
  3740           3.000           0.000           0.000           0.967           0.000           0.000           0.000
  3750           3.000           0.000           0.000           0.970           0.000           0.000           0.000
  3760           3.000           0.000           0.000           0.972           0.000           0.000           0.000
  3770           3.000           0.000           0.000           0.975           0.000           0.000           0.000
  3780           3.000           0.000           0.000           0.977           0.000           0.000           0.000
  3790           3.000           0.000           0.000           0.980           0.000           0.000           0.000
  3800           3.000           0.000           0.000           0.983           0.000           0.000           0.000
  3810           3.000           0.000           0.000           0.985           0.000           0.000           0.000
  3820           3.000           0.000           0.000           0.988           0.000           0.000           0.000
  3830           3.000           0.000           0.000           0.990           0.000           0.000           0.000
  3840           3.000           0.000           0.000           0.993           0.000           0.000           0.000
  3850           3.000           0.000           0.000           0.995           0.000           0.000           0.000
  3860           3.000           0.000           0.000           0.998           0.000           0.000           0.000
  3870           3.000           0.000           0.000           1.001           0.000           0.000           0.000
  3880           3.000           0.000           0.000           1.003           0.000           0.000           0.000
  3890           3.000           0.000           0.000           1.006           0.000           0.000           0.000
  3900           3.000           0.000           0.000           1.008           0.000           0.000           0.000
  3910           3.000           0.000           0.000           1.011           0.000           0.000           0.000
  3920           3.000           0.000           0.000           1.014           0.000           0.000           0.000
  3930           3.000           0.000           0.000           1.016           0.000           0.000           0.000
  3940           3.000           0.000           0.000           1.019           0.000           0.000           0.000
  3950           3.000           0.000           0.000           1.021           0.000           0.000           0.000
  3960           3.000           0.000           0.000           1.024           0.000           0.000           0.000
  3970           3.000           0.000           0.000           1.026           0.000           0.000           0.000
  3980           3.000           0.000           0.000           1.029           0.000           0.000           0.000
  3990           3.000           0.000           0.000           1.032           0.000           0.000           0.000
  4000           3.000           0.000           0.000           1.034           0.000           0.000           0.000
  4010           3.000           0.000           0.000           1.037           0.000           0.000           0.000
  4020           3.000           0.000           0.000           1.039           0.000           0.000           0.000
  4030           3.000           0.000           0.000           1.042           0.000           0.000           0.000
  4040           3.000           0.000           0.000           1.045           0.000           0.000           0.000
  4050           3.000           0.000           0.000           1.047           0.000           0.000           0.000
  4060           3.000           0.000           0.000           1.050           0.000           0.000           0.000
  4070           3.000           0.000           0.000           1.052           0.000           0.000           0.000
  4080           3.000           0.000           0.000           1.055           0.000           0.000           0.000
  4090           3.000           0.000           0.000           1.057           0.000           0.000           0.000
  4100           3.000           0.000           0.000           1.060           0.000           0.000           0.000
  4110           3.000           0.000           0.000           1.063           0.000           0.000           0.000
  4120           3.000           0.000           0.000           1.065           0.000           0.000           0.000
  4130           3.000           0.000           0.000           1.068           0.000           0.000           0.000
  4140           3.000           0.000           0.000           1.070           0.000           0.000           0.000
  4150           3.000           0.000           0.000           1.073           0.000           0.000           0.000
  4160           3.000           0.000           0.000           1.076           0.000           0.000           0.000
  4170           3.000           0.000           0.000           1.078           0.000           0.000           0.000
  4180           3.000           0.000           0.000           1.081           0.000           0.000           0.000
  4190           3.000           0.000           0.000           1.083           0.000           0.000           0.000
  4200           3.000           0.000           0.000           1.086           0.000           0.000           0.000
  4210           3.000           0.000           0.000           1.088           0.000           0.000           0.000
  4220           3.000           0.000           0.000           1.091           0.000           0.000           0.000
  4230           3.000           0.000           0.000           1.094           0.000           0.000           0.000
  4240           3.000           0.000           0.000           1.096           0.000           0.000           0.000
  4250           3.000           0.000           0.000           1.099           0.000           0.000           0.000
  4260           3.000           0.000           0.000           1.101           0.000           0.000           0.000
  4270           3.000           0.000           0.000           1.104           0.000           0.000           0.000
  4280           3.000           0.000           0.000           1.107           0.000           0.000           0.000
  4290           3.000           0.000           0.000           1.109           0.000           0.000           0.000
  4300           3.000           0.000           0.000           1.112           0.000           0.000           0.000
  4310           3.000           0.000           0.000           1.114           0.000           0.000           0.000
  4320           3.000           0.000           0.000           1.117           0.000           0.000           0.000
  4330           3.000           0.000           0.000           1.120           0.000           0.000           0.000
  4340           3.000           0.000           0.000           1.122           0.000           0.000           0.000
  4350           3.000           0.000           0.000           1.125           0.000           0.000           0.000
  4360           3.000           0.000           0.000           1.127           0.000           0.000           0.000
  4370           3.000           0.000           0.000           1.130           0.000           0.000           0.000
  4380           3.000           0.000           0.000           1.132           0.000           0.000           0.000
  4390           3.000           0.000           0.000           1.135           0.000           0.000           0.000
  4400           3.000           0.000           0.000           1.138           0.000           0.000           0.000
  4410           3.000           0.000           0.000           1.140           0.000           0.000           0.000
  4420           3.000           0.000           0.000           1.143           0.000           0.000           0.000
  4430           3.000           0.000           0.000           1.145           0.000           0.000           0.000
  4440           3.000           0.000           0.000           1.148           0.000           0.000           0.000
  4450           3.000           0.000           0.000           1.151           0.000           0.000           0.000
  4460           3.000           0.000           0.000           1.153           0.000           0.000           0.000
  4470           3.000           0.000           0.000           1.156           0.000           0.000           0.000
  4480           3.000           0.000           0.000           1.158           0.000           0.000           0.000
  4490           3.000           0.000           0.000           1.161           0.000           0.000           0.000
  4500           3.000           0.000           0.000           1.163           0.000           0.000           0.000
  4510           3.000           0.000           0.000           1.166           0.000           0.000           0.000
  4520           3.000           0.000           0.000           1.169           0.000           0.000           0.000
  4530           3.000           0.000           0.000           1.171           0.000           0.000           0.000
  4540           3.000           0.000           0.000           1.174           0.000           0.000           0.000
  4550           3.000           0.000           0.000           1.176           0.000           0.000           0.000
  4560           3.000           0.000           0.000           1.179           0.000           0.000           0.000
  4570           3.000           0.000           0.000           1.182           0.000           0.000           0.000
  4580           3.000           0.000           0.000           1.184           0.000           0.000           0.000
  4590           3.000           0.000           0.000           1.187           0.000           0.000           0.000
  4600           3.000           0.000           0.000           1.189           0.000           0.000           0.000
  4610           3.000           0.000           0.000           1.192           0.000           0.000           0.000
  4620           3.000           0.000           0.000           1.194           0.000           0.000           0.000
  4630           3.000           0.000           0.000           1.197           0.000           0.000           0.000
  4640           3.000           0.000           0.000           1.200           0.000           0.000           0.000
  4650           3.000           0.000           0.000           1.202           0.000           0.000           0.000
  4660           3.000           0.000           0.000           1.205           0.000           0.000           0.000
  4670           3.000           0.000           0.000           1.207           0.000           0.000           0.000
  4680           3.000           0.000           0.000           1.210           0.000           0.000           0.000
  4690           3.000           0.000           0.000           1.213           0.000           0.000           0.000
  4700           3.000           0.000           0.000           1.215           0.000           0.000           0.000
  4710           3.000           0.000           0.000           1.218           0.000           0.000           0.000
  4720           3.000           0.000           0.000           1.220           0.000           0.000           0.000
  4730           3.000           0.000           0.000           1.223           0.000           0.000           0.000
  4740           3.000           0.000           0.000           1.225           0.000           0.000           0.000
  4750           3.000           0.000           0.000           1.228           0.000           0.000           0.000
  4760           3.000           0.000           0.000           1.231           0.000           0.000           0.000
  4770           3.000           0.000           0.000           1.233           0.000           0.000           0.000
  4780           3.000           0.000           0.000           1.236           0.000           0.000           0.000
  4790           3.000           0.000           0.000           1.238           0.000           0.000           0.000
  4800           3.000           0.000           0.000           1.241           0.000           0.000           0.000
  4810           3.000           0.000           0.000           1.244           0.000           0.000           0.000
  4820           3.000           0.000           0.000           1.246           0.000           0.000           0.000
  4830           3.000           0.000           0.000           1.249           0.000           0.000           0.000
  4840           3.000           0.000           0.000           1.251           0.000           0.000           0.000
  4850           3.000           0.000           0.000           1.254           0.000           0.000           0.000
  4860           3.000           0.000           0.000           1.257           0.000           0.000           0.000
  4870           3.000           0.000           0.000           1.259           0.000           0.000           0.000
  4880           3.000           0.000           0.000           1.262           0.000           0.000           0.000
  4890           3.000           0.000           0.000           1.264           0.000           0.000           0.000
  4900           3.000           0.000           0.000           1.267           0.000           0.000           0.000
  4910           3.000           0.000           0.000           1.269           0.000           0.000           0.000
  4920           3.000           0.000           0.000           1.272           0.000           0.000           0.000
  4930           3.000           0.000           0.000           1.275           0.000           0.000           0.000
  4940           3.000           0.000           0.000           1.277           0.000           0.000           0.000
  4950           3.000           0.000           0.000           1.280           0.000           0.000           0.000
  4960           3.000           0.000           0.000           1.282           0.000           0.000           0.000
  4970           3.000           0.000           0.000           1.285           0.000           0.000           0.000
  4980           3.000           0.000           0.000           1.288           0.000           0.000           0.000
  4990           3.000           0.000           0.000           1.290           0.000           0.000           0.000
  5000           3.000           0.000           0.000           1.293           0.000           0.000           0.000
  5010           3.000           0.000           0.000           1.295           0.000           0.000           0.000
  5020           3.000           0.000           0.000           1.298           0.000           0.000           0.000
  5030           3.000           0.000           0.000           1.300           0.000           0.000           0.000
  5040           3.000           0.000           0.000           1.303           0.000           0.000           0.000
  5050           3.000           0.000           0.000           1.306           0.000           0.000           0.000
  5060           3.000           0.000           0.000           1.308           0.000           0.000           0.000
  5070           3.000           0.000           0.000           1.311           0.000           0.000           0.000
  5080           3.000           0.000           0.000           1.313           0.000           0.000           0.000
  5090           3.000           0.000           0.000           1.316           0.000           0.000           0.000
  5100           3.000           0.000           0.000           1.319           0.000           0.000           0.000
  5110           3.000           0.000           0.000           1.321           0.000           0.000           0.000
  5120           3.000           0.000           0.000           1.324           0.000           0.000           0.000
  5130           3.000           0.000           0.000           1.326           0.000           0.000           0.000
  5140           3.000           0.000           0.000           1.329           0.000           0.000           0.000
  5150           3.000           0.000           0.000           1.331           0.000           0.000           0.000
  5160           3.000           0.000           0.000           1.334           0.000           0.000           0.000
  5170           3.000           0.000           0.000           1.337           0.000           0.000           0.000
  5180           3.000           0.000           0.000           1.339           0.000           0.000           0.000
  5190           3.000           0.000           0.000           1.342           0.000           0.000           0.000
  5200           3.000           0.000           0.000           1.344           0.000           0.000           0.000
  5210           3.000           0.000           0.000           1.347           0.000           0.000           0.000
  5220           3.000           0.000           0.000           1.350           0.000           0.000           0.000
  5230           3.000           0.000           0.000           1.352           0.000           0.000           0.000
  5240           3.000           0.000           0.000           1.355           0.000           0.000           0.000
  5250           3.000           0.000           0.000           1.357           0.000           0.000           0.000
  5260           3.000           0.000           0.000           1.360           0.000           0.000           0.000
  5270           3.000           0.000           0.000           1.363           0.000           0.000           0.000
  5280           3.000           0.000           0.000           1.365           0.000           0.000           0.000
  5290           3.000           0.000           0.000           1.368           0.000           0.000           0.000
  5300           3.000           0.000           0.000           1.370           0.000           0.000           0.000
  5310           3.000           0.000           0.000           1.373           0.000           0.000           0.000
  5320           3.000           0.000           0.000           1.375           0.000           0.000           0.000
  5330           3.000           0.000           0.000           1.378           0.000           0.000           0.000
  5340           3.000           0.000           0.000           1.381           0.000           0.000           0.000
  5350           3.000           0.000           0.000           1.383           0.000           0.000           0.000
  5360           3.000           0.000           0.000           1.386           0.000           0.000           0.000
  5370           3.000           0.000           0.000           1.388           0.000           0.000           0.000
  5380           3.000           0.000           0.000           1.391           0.000           0.000           0.000
  5390           3.000           0.000           0.000           1.394           0.000           0.000           0.000
  5400           3.000           0.000           0.000           1.396           0.000           0.000           0.000
  5410           3.000           0.000           0.000           1.399           0.000           0.000           0.000
  5420           3.000           0.000           0.000           1.401           0.000           0.000           0.000
  5430           3.000           0.000           0.000           1.404           0.000           0.000           0.000
  5440           3.000           0.000           0.000           1.406           0.000           0.000           0.000
  5450           3.000           0.000           0.000           1.409           0.000           0.000           0.000
  5460           3.000           0.000           0.000           1.412           0.000           0.000           0.000
  5470           3.000           0.000           0.000           1.414           0.000           0.000           0.000
  5480           3.000           0.000           0.000           1.417           0.000           0.000           0.000
  5490           3.000           0.000           0.000           1.419           0.000           0.000           0.000
  5500           3.000           0.000           0.000           1.422           0.000           0.000           0.000
  5510           3.000           0.000           0.000           1.425           0.000           0.000           0.000
  5520           3.000           0.000           0.000           1.427           0.000           0.000           0.000
  5530           3.000           0.000           0.000           1.430           0.000           0.000           0.000
  5540           3.000           0.000           0.000           1.432           0.000           0.000           0.000
  5550           3.000           0.000           0.000           1.435           0.000           0.000           0.000
  5560           3.000           0.000           0.000           1.437           0.000           0.000           0.000
  5570           3.000           0.000           0.000           1.440           0.000           0.000           0.000
  5580           3.000           0.000           0.000           1.443           0.000           0.000           0.000
  5590           3.000           0.000           0.000           1.445           0.000           0.000           0.000
  5600           3.000           0.000           0.000           1.448           0.000           0.000           0.000
  5610           3.000           0.000           0.000           1.450           0.000           0.000           0.000
  5620           3.000           0.000           0.000           1.453           0.000           0.000           0.000
  5630           3.000           0.000           0.000           1.456           0.000           0.000           0.000
  5640           3.000           0.000           0.000           1.458           0.000           0.000           0.000
  5650           3.000           0.000           0.000           1.461           0.000           0.000           0.000
  5660           3.000           0.000           0.000           1.463           0.000           0.000           0.000
  5670           3.000           0.000           0.000           1.466           0.000           0.000           0.000
  5680           3.000           0.000           0.000           1.468           0.000           0.000           0.000
  5690           3.000           0.000           0.000           1.471           0.000           0.000           0.000
  5700           3.000           0.000           0.000           1.474           0.000           0.000           0.000
  5710           3.000           0.000           0.000           1.476           0.000           0.000           0.000
  5720           3.000           0.000           0.000           1.479           0.000           0.000           0.000
  5730           3.000           0.000           0.000           1.481           0.000           0.000           0.000
  5740           3.000           0.000           0.000           1.484           0.000           0.000           0.000
  5750           3.000           0.000           0.000           1.487           0.000           0.000           0.000
  5760           3.000           0.000           0.000           1.489           0.000           0.000           0.000
  5770           3.000           0.000           0.000           1.492           0.000           0.000           0.000
  5780           3.000           0.000           0.000           1.494           0.000           0.000           0.000
  5790           3.000           0.000           0.000           1.497           0.000           0.000           0.000
  5800           3.000           0.000           0.000           1.500           0.000           0.000           0.000
  5810           3.000           0.000           0.000           1.502           0.000           0.000           0.000
  5820           3.000           0.000           0.000           1.505           0.000           0.000           0.000
  5830           3.000           0.000           0.000           1.507           0.000           0.000           0.000
  5840           3.000           0.000           0.000           1.510           0.000           0.000           0.000
  5850           3.000           0.000           0.000           1.512           0.000           0.000           0.000
  5860           3.000           0.000           0.000           1.515           0.000           0.000           0.000
  5870           3.000           0.000           0.000           1.518           0.000           0.000           0.000
  5880           3.000           0.000           0.000           1.520           0.000           0.000           0.000
  5890           3.000           0.000           0.000           1.523           0.000           0.000           0.000
  5900           3.000           0.000           0.000           1.525           0.000           0.000           0.000
  5910           3.000           0.000           0.000           1.528           0.000           0.000           0.000
  5920           3.000           0.000           0.000           1.531           0.000           0.000           0.000
  5930           3.000           0.000           0.000           1.533           0.000           0.000           0.000
  5940           3.000           0.000           0.000           1.536           0.000           0.000           0.000
  5950           3.000           0.000           0.000           1.538           0.000           0.000           0.000
  5960           3.000           0.000           0.000           1.541           0.000           0.000           0.000
  5970           3.000           0.000           0.000           1.543           0.000           0.000           0.000
  5980           3.000           0.000           0.000           1.546           0.000           0.000           0.000
  5990           3.000           0.000           0.000           1.549           0.000           0.000           0.000
  6000           3.000           0.000           0.000           1.551           0.000           0.000           0.000
  6010           3.000           0.000           0.000           1.554           0.000           0.000           0.000
  6020           3.000           0.000           0.000           1.556           0.000           0.000           0.000
  6030           3.000           0.000           0.000           1.559           0.000           0.000           0.000
  6040           3.000           0.000           0.000           1.562           0.000           0.000           0.000
  6050           3.000           0.000           0.000           1.564           0.000           0.000           0.000
  6060           3.000           0.000           0.000           1.567           0.000           0.000           0.000
  6070           3.000           0.000           0.000           1.569           0.000           0.000           0.000
  6080           3.000           0.000           0.000           1.572           0.000           0.000           0.000
  6090           3.000           0.000           0.000           1.574           0.000           0.000           0.000
  6100           3.000           0.000           0.000           1.577           0.000           0.000           0.000
  6110           3.000           0.000           0.000           1.580           0.000           0.000           0.000
  6120           3.000           0.000           0.000           1.582           0.000           0.000           0.000
  6130           3.000           0.000           0.000           1.585           0.000           0.000           0.000
  6140           3.000           0.000           0.000           1.587           0.000           0.000           0.000
  6150           3.000           0.000           0.000           1.590           0.000           0.000           0.000
  6160           3.000           0.000           0.000           1.593           0.000           0.000           0.000
  6170           3.000           0.000           0.000           1.595           0.000           0.000           0.000
  6180           3.000           0.000           0.000           1.598           0.000           0.000           0.000
  6190           3.000           0.000           0.000           1.600           0.000           0.000           0.000
  6200           3.000           0.000           0.000           1.603           0.000           0.000           0.000
  6210           3.000           0.000           0.000           1.605           0.000           0.000           0.000
  6220           3.000           0.000           0.000           1.608           0.000           0.000           0.000
  6230           3.000           0.000           0.000           1.611           0.000           0.000           0.000
  6240           3.000           0.000           0.000           1.613           0.000           0.000           0.000
  6250           3.000           0.000           0.000           1.616           0.000           0.000           0.000
  6260           3.000           0.000           0.000           1.618           0.000           0.000           0.000
  6270           3.000           0.000           0.000           1.621           0.000           0.000           0.000
  6280           3.000           0.000           0.000           1.624           0.000           0.000           0.000
  6290           3.000           0.000           0.000           1.626           0.000           0.000           0.000
  6300           3.000           0.000           0.000           1.629           0.000           0.000           0.000
  6310           3.000           0.000           0.000           1.631           0.000           0.000           0.000
  6320           3.000           0.000           0.000           1.634           0.000           0.000           0.000
  6330           3.000           0.000           0.000           1.637           0.000           0.000           0.000
  6340           3.000           0.000           0.000           1.639           0.000           0.000           0.000
  6350           3.000           0.000           0.000           1.642           0.000           0.000           0.000
  6360           3.000           0.000           0.000           1.644           0.000           0.000           0.000
  6370           3.000           0.000           0.000           1.647           0.000           0.000           0.000
  6380           3.000           0.000           0.000           1.649           0.000           0.000           0.000
  6390           3.000           0.000           0.000           1.652           0.000           0.000           0.000
  6400           3.000           0.000           0.000           1.655           0.000           0.000           0.000
  6410           3.000           0.000           0.000           1.657           0.000           0.000           0.000
  6420           3.000           0.000           0.000           1.660           0.000           0.000           0.000
  6430           3.000           0.000           0.000           1.662           0.000           0.000           0.000
  6440           3.000           0.000           0.000           1.665           0.000           0.000           0.000
  6450           3.000           0.000           0.000           1.668           0.000           0.000           0.000
  6460           3.000           0.000           0.000           1.670           0.000           0.000           0.000
  6470           3.000           0.000           0.000           1.673           0.000           0.000           0.000
  6480           3.000           0.000           0.000           1.675           0.000           0.000           0.000
  6490           3.000           0.000           0.000           1.678           0.000           0.000           0.000
  6500           3.000           0.000           0.000           1.680           0.000           0.000           0.000
  6510           3.000           0.000           0.000           1.683           0.000           0.000           0.000
  6520           3.000           0.000           0.000           1.686           0.000           0.000           0.000
  6530           3.000           0.000           0.000           1.688           0.000           0.000           0.000
  6540           3.000           0.000           0.000           1.691           0.000           0.000           0.000
  6550           3.000           0.000           0.000           1.693           0.000           0.000           0.000
  6560           3.000           0.000           0.000           1.696           0.000           0.000           0.000
  6570           3.000           0.000           0.000           1.699           0.000           0.000           0.000
  6580           3.000           0.000           0.000           1.701           0.000           0.000           0.000
  6590           3.000           0.000           0.000           1.704           0.000           0.000           0.000
  6600           3.000           0.000           0.000           1.706           0.000           0.000           0.000
  6610           3.000           0.000           0.000           1.709           0.000           0.000           0.000
  6620           3.000           0.000           0.000           1.711           0.000           0.000           0.000
  6630           3.000           0.000           0.000           1.714           0.000           0.000           0.000
  6640           3.000           0.000           0.000           1.717           0.000           0.000           0.000
  6650           3.000           0.000           0.000           1.719           0.000           0.000           0.000
  6660           3.000           0.000           0.000           1.722           0.000           0.000           0.000
  6670           3.000           0.000           0.000           1.724           0.000           0.000           0.000
  6680           3.000           0.000           0.000           1.727           0.000           0.000           0.000
  6690           3.000           0.000           0.000           1.730           0.000           0.000           0.000
  6700           3.000           0.000           0.000           1.732           0.000           0.000           0.000
  6710           3.000           0.000           0.000           1.735           0.000           0.000           0.000
  6720           3.000           0.000           0.000           1.737           0.000           0.000           0.000
  6730           3.000           0.000           0.000           1.740           0.000           0.000           0.000
  6740           3.000           0.000           0.000           1.743           0.000           0.000           0.000
  6750           3.000           0.000           0.000           1.745           0.000           0.000           0.000
  6760           3.000           0.000           0.000           1.748           0.000           0.000           0.000
  6770           3.000           0.000           0.000           1.750           0.000           0.000           0.000
  6780           3.000           0.000           0.000           1.753           0.000           0.000           0.000
  6790           3.000           0.000           0.000           1.755           0.000           0.000           0.000
  6800           3.000           0.000           0.000           1.758           0.000           0.000           0.000
  6810           3.000           0.000           0.000           1.761           0.000           0.000           0.000
  6820           3.000           0.000           0.000           1.763           0.000           0.000           0.000
  6830           3.000           0.000           0.000           1.766           0.000           0.000           0.000
  6840           3.000           0.000           0.000           1.768           0.000           0.000           0.000
  6850           3.000           0.000           0.000           1.771           0.000           0.000           0.000
  6860           3.000           0.000           0.000           1.774           0.000           0.000           0.000
  6870           3.000           0.000           0.000           1.776           0.000           0.000           0.000
  6880           3.000           0.000           0.000           1.779           0.000           0.000           0.000
  6890           3.000           0.000           0.000           1.781           0.000           0.000           0.000
  6900           3.000           0.000           0.000           1.784           0.000           0.000           0.000
  6910           3.000           0.000           0.000           1.786           0.000           0.000           0.000
  6920           3.000           0.000           0.000           1.789           0.000           0.000           0.000
  6930           3.000           0.000           0.000           1.792           0.000           0.000           0.000
  6940           3.000           0.000           0.000           1.794           0.000           0.000           0.000
  6950           3.000           0.000           0.000           1.797           0.000           0.000           0.000
  6960           3.000           0.000           0.000           1.799           0.000           0.000           0.000
  6970           3.000           0.000           0.000           1.802           0.000           0.000           0.000
  6980           3.000           0.000           0.000           1.805           0.000           0.000           0.000
  6990           3.000           0.000           0.000           1.807           0.000           0.000           0.000
  7000           3.000           0.000           0.000           1.810           0.000           0.000           0.000
  7010           3.000           0.000           0.000           1.812           0.000           0.000           0.000
  7020           3.000           0.000           0.000           1.815           0.000           0.000           0.000
  7030           3.000           0.000           0.000           1.817           0.000           0.000           0.000
  7040           3.000           0.000           0.000           1.820           0.000           0.000           0.000
  7050           3.000           0.000           0.000           1.823           0.000           0.000           0.000
  7060           3.000           0.000           0.000           1.825           0.000           0.000           0.000
  7070           3.000           0.000           0.000           1.828           0.000           0.000           0.000
  7080           3.000           0.000           0.000           1.830           0.000           0.000           0.000
  7090           3.000           0.000           0.000           1.833           0.000           0.000           0.000
  7100           3.000           0.000           0.000           1.836           0.000           0.000           0.000
  7110           3.000           0.000           0.000           1.838           0.000           0.000           0.000
  7120           3.000           0.000           0.000           1.841           0.000           0.000           0.000
  7130           3.000           0.000           0.000           1.843           0.000           0.000           0.000
  7140           3.000           0.000           0.000           1.846           0.000           0.000           0.000
  7150           3.000           0.000           0.000           1.848           0.000           0.000           0.000
  7160           3.000           0.000           0.000           1.851           0.000           0.000           0.000
  7170           3.000           0.000           0.000           1.854           0.000           0.000           0.000
  7180           3.000           0.000           0.000           1.856           0.000           0.000           0.000
  7190           3.000           0.000           0.000           1.859           0.000           0.000           0.000
  7200           3.000           0.000           0.000           1.861           0.000           0.000           0.000
  7210           3.000           0.000           0.000           1.864           0.000           0.000           0.000
  7220           3.000           0.000           0.000           1.867           0.000           0.000           0.000
  7230           3.000           0.000           0.000           1.869           0.000           0.000           0.000
  7240           3.000           0.000           0.000           1.872           0.000           0.000           0.000
  7250           3.000           0.000           0.000           1.874           0.000           0.000           0.000
  7260           3.000           0.000           0.000           1.877           0.000           0.000           0.000
  7270           3.000           0.000           0.000           1.880           0.000           0.000           0.000
  7280           3.000           0.000           0.000           1.882           0.000           0.000           0.000
  7290           3.000           0.000           0.000           1.885           0.000           0.000           0.000
  7300           3.000           0.000           0.000           1.887           0.000           0.000           0.000
  7310           3.000           0.000           0.000           1.890           0.000           0.000           0.000
  7320           3.000           0.000           0.000           1.892           0.000           0.000           0.000
  7330           3.000           0.000           0.000           1.895           0.000           0.000           0.000
  7340           3.000           0.000           0.000           1.898           0.000           0.000           0.000
  7350           3.000           0.000           0.000           1.900           0.000           0.000           0.000
  7360           3.000           0.000           0.000           1.903           0.000           0.000           0.000
  7370           3.000           0.000           0.000           1.905           0.000           0.000           0.000
  7380           3.000           0.000           0.000           1.908           0.000           0.000           0.000
  7390           3.000           0.000           0.000           1.911           0.000           0.000           0.000
  7400           3.000           0.000           0.000           1.913           0.000           0.000           0.000
  7410           3.000           0.000           0.000           1.916           0.000           0.000           0.000
  7420           3.000           0.000           0.000           1.918           0.000           0.000           0.000
  7430           3.000           0.000           0.000           1.921           0.000           0.000           0.000
  7440           3.000           0.000           0.000           1.923           0.000           0.000           0.000
  7450           3.000           0.000           0.000           1.926           0.000           0.000           0.000
  7460           3.000           0.000           0.000           1.929           0.000           0.000           0.000
  7470           3.000           0.000           0.000           1.931           0.000           0.000           0.000
  7480           3.000           0.000           0.000           1.934           0.000           0.000           0.000
  7490           3.000           0.000           0.000           1.936           0.000           0.000           0.000
  7500           3.000           0.000           0.000           1.939           0.000           0.000           0.000
  7510           3.000           0.000           0.000           1.942           0.000           0.000           0.000
  7520           3.000           0.000           0.000           1.944           0.000           0.000           0.000
  7530           3.000           0.000           0.000           1.947           0.000           0.000           0.000
  7540           3.000           0.000           0.000           1.949           0.000           0.000           0.000
  7550           3.000           0.000           0.000           1.952           0.000           0.000           0.000
  7560           3.000           0.000           0.000           1.954           0.000           0.000           0.000
  7570           3.000           0.000           0.000           1.957           0.000           0.000           0.000
  7580           3.000           0.000           0.000           1.960           0.000           0.000           0.000
  7590           3.000           0.000           0.000           1.962           0.000           0.000           0.000
  7600           3.000           0.000           0.000           1.965           0.000           0.000           0.000
  7610           3.000           0.000           0.000           1.967           0.000           0.000           0.000
  7620           3.000           0.000           0.000           1.970           0.000           0.000           0.000
  7630           3.000           0.000           0.000           1.973           0.000           0.000           0.000
  7640           3.000           0.000           0.000           1.975           0.000           0.000           0.000
  7650           3.000           0.000           0.000           1.978           0.000           0.000           0.000
  7660           3.000           0.000           0.000           1.980           0.000           0.000           0.000
  7670           3.000           0.000           0.000           1.983           0.000           0.000           0.000
  7680           3.000           0.000           0.000           1.986           0.000           0.000           0.000
  7690           3.000           0.000           0.000           1.988           0.000           0.000           0.000
  7700           3.000           0.000           0.000           1.991           0.000           0.000           0.000
  7710           3.000           0.000           0.000           1.993           0.000           0.000           0.000
  7720           3.000           0.000           0.000           1.996           0.000           0.000           0.000
  7730           3.000           0.000           0.000           1.998           0.000           0.000           0.000
  7740           3.000           0.000           0.000           2.001           0.000           0.000           0.000
  7750           3.000           0.000           0.000           2.004           0.000           0.000           0.000
  7760           3.000           0.000           0.000           2.006           0.000           0.000           0.000
  7770           3.000           0.000           0.000           2.009           0.000           0.000           0.000
  7780           3.000           0.000           0.000           2.011           0.000           0.000           0.000
  7790           3.000           0.000           0.000           2.014           0.000           0.000           0.000
  7800           3.000           0.000           0.000           2.017           0.000           0.000           0.000
  7810           3.000           0.000           0.000           2.019           0.000           0.000           0.000
  7820           3.000           0.000           0.000           2.022           0.000           0.000           0.000
  7830           3.000           0.000           0.000           2.024           0.000           0.000           0.000
  7840           3.000           0.000           0.000           2.027           0.000           0.000           0.000
  7850           3.000           0.000           0.000           2.029           0.000           0.000           0.000
  7860           3.000           0.000           0.000           2.032           0.000           0.000           0.000
  7870           3.000           0.000           0.000           2.035           0.000           0.000           0.000
  7880           3.000           0.000           0.000           2.037           0.000           0.000           0.000
  7890           3.000           0.000           0.000           2.040           0.000           0.000           0.000
  7900           3.000           0.000           0.000           2.042           0.000           0.000           0.000
  7910           3.000           0.000           0.000           2.045           0.000           0.000           0.000
  7920           3.000           0.000           0.000           2.048           0.000           0.000           0.000
  7930           3.000           0.000           0.000           2.050           0.000           0.000           0.000
  7940           3.000           0.000           0.000           2.053           0.000           0.000           0.000
  7950           3.000           0.000           0.000           2.055           0.000           0.000           0.000
  7960           3.000           0.000           0.000           2.058           0.000           0.000           0.000
  7970           3.000           0.000           0.000           2.060           0.000           0.000           0.000
  7980           3.000           0.000           0.000           2.063           0.000           0.000           0.000
  7990           3.000           0.000           0.000           2.066           0.000           0.000           0.000
  8000           3.000           0.000           0.000           2.068           0.000           0.000           0.000
  8010           3.000           0.000           0.000           2.071           0.000           0.000           0.000
  8020           3.000           0.000           0.000           2.073           0.000           0.000           0.000
  8030           3.000           0.000           0.000           2.076           0.000           0.000           0.000
  8040           3.000           0.000           0.000           2.079           0.000           0.000           0.000
  8050           3.000           0.000           0.000           2.081           0.000           0.000           0.000
  8060           3.000           0.000           0.000           2.084           0.000           0.000           0.000
  8070           3.000           0.000           0.000           2.086           0.000           0.000           0.000
  8080           3.000           0.000           0.000           2.089           0.000           0.000           0.000
  8090           3.000           0.000           0.000           2.091           0.000           0.000           0.000
  8100           3.000           0.000           0.000           2.094           0.000           0.000           0.000
  8110           3.000           0.000           0.000           2.097           0.000           0.000           0.000
  8120           3.000           0.000           0.000           2.099           0.000           0.000           0.000
  8130           3.000           0.000           0.000           2.102           0.000           0.000           0.000
  8140           3.000           0.000           0.000           2.104           0.000           0.000           0.000
  8150           3.000           0.000           0.000           2.107           0.000           0.000           0.000
  8160           3.000           0.000           0.000           2.110           0.000           0.000           0.000
  8170           3.000           0.000           0.000           2.112           0.000           0.000           0.000
  8180           3.000           0.000           0.000           2.115           0.000           0.000           0.000
  8190           3.000           0.000           0.000           2.117           0.000           0.000           0.000
  8200           3.000           0.000           0.000           2.120           0.000           0.000           0.000
  8210           3.000           0.000           0.000           2.123           0.000           0.000           0.000
  8220           3.000           0.000           0.000           2.125           0.000           0.000           0.000
  8230           3.000           0.000           0.000           2.128           0.000           0.000           0.000
  8240           3.000           0.000           0.000           2.130           0.000           0.000           0.000
  8250           3.000           0.000           0.000           2.133           0.000           0.000           0.000
  8260           3.000           0.000           0.000           2.135           0.000           0.000           0.000
  8270           3.000           0.000           0.000           2.138           0.000           0.000           0.000
  8280           3.000           0.000           0.000           2.141           0.000           0.000           0.000
  8290           3.000           0.000           0.000           2.143           0.000           0.000           0.000
  8300           3.000           0.000           0.000           2.146           0.000           0.000           0.000
  8310           3.000           0.000           0.000           2.148           0.000           0.000           0.000
  8320           3.000           0.000           0.000           2.151           0.000           0.000           0.000
  8330           3.000           0.000           0.000           2.154           0.000           0.000           0.000
  8340           3.000           0.000           0.000           2.156           0.000           0.000           0.000
  8350           3.000           0.000           0.000           2.159           0.000           0.000           0.000
  8360           3.000           0.000           0.000           2.161           0.000           0.000           0.000
  8370           3.000           0.000           0.000           2.164           0.000           0.000           0.000
  8380           3.000           0.000           0.000           2.166           0.000           0.000           0.000
  8390           3.000           0.000           0.000           2.169           0.000           0.000           0.000
  8400           3.000           0.000           0.000           2.172           0.000           0.000           0.000
  8410           3.000           0.000           0.000           2.174           0.000           0.000           0.000
  8420           3.000           0.000           0.000           2.177           0.000           0.000           0.000
  8430           3.000           0.000           0.000           2.179           0.000           0.000           0.000
  8440           3.000           0.000           0.000           2.182           0.000           0.000           0.000
  8450           3.000           0.000           0.000           2.185           0.000           0.000           0.000
  8460           3.000           0.000           0.000           2.187           0.000           0.000           0.000
  8470           3.000           0.000           0.000           2.190           0.000           0.000           0.000
  8480           3.000           0.000           0.000           2.192           0.000           0.000           0.000
  8490           3.000           0.000           0.000           2.195           0.000           0.000           0.000
  8500           3.000           0.000           0.000           2.197           0.000           0.000           0.000
  8510           3.000           0.000           0.000           2.200           0.000           0.000           0.000
  8520           3.000           0.000           0.000           2.203           0.000           0.000           0.000
  8530           3.000           0.000           0.000           2.205           0.000           0.000           0.000
  8540           3.000           0.000           0.000           2.208           0.000           0.000           0.000
  8550           3.000           0.000           0.000           2.210           0.000           0.000           0.000
  8560           3.000           0.000           0.000           2.213           0.000           0.000           0.000
  8570           3.000           0.000           0.000           2.216           0.000           0.000           0.000
  8580           3.000           0.000           0.000           2.218           0.000           0.000           0.000
  8590           3.000           0.000           0.000           2.221           0.000           0.000           0.000
  8600           3.000           0.000           0.000           2.223           0.000           0.000           0.000
  8610           3.000           0.000           0.000           2.226           0.000           0.000           0.000
  8620           3.000           0.000           0.000           2.229           0.000           0.000           0.000
  8630           3.000           0.000           0.000           2.231           0.000           0.000           0.000
  8640           3.000           0.000           0.000           2.234           0.000           0.000           0.000
  8650           3.000           0.000           0.000           2.236           0.000           0.000           0.000
  8660           3.000           0.000           0.000           2.239           0.000           0.000           0.000
  8670           3.000           0.000           0.000           2.241           0.000           0.000           0.000
  8680           3.000           0.000           0.000           2.244           0.000           0.000           0.000
  8690           3.000           0.000           0.000           2.247           0.000           0.000           0.000
  8700           3.000           0.000           0.000           2.249           0.000           0.000           0.000
  8710           3.000           0.000           0.000           2.252           0.000           0.000           0.000
  8720           3.000           0.000           0.000           2.254           0.000           0.000           0.000
  8730           3.000           0.000           0.000           2.257           0.000           0.000           0.000
  8740           3.000           0.000           0.000           2.260           0.000           0.000           0.000
  8750           3.000           0.000           0.000           2.262           0.000           0.000           0.000
  8760           3.000           0.000           0.000           2.265           0.000           0.000           0.000
  8770           3.000           0.000           0.000           2.267           0.000           0.000           0.000
  8780           3.000           0.000           0.000           2.270           0.000           0.000           0.000
  8790           3.000           0.000           0.000           2.272           0.000           0.000           0.000
  8800           3.000           0.000           0.000           2.275           0.000           0.000           0.000
  8810           3.000           0.000           0.000           2.278           0.000           0.000           0.000
  8820           3.000           0.000           0.000           2.280           0.000           0.000           0.000
  8830           3.000           0.000           0.000           2.283           0.000           0.000           0.000
  8840           3.000           0.000           0.000           2.285           0.000           0.000           0.000
  8850           3.000           0.000           0.000           2.288           0.000           0.000           0.000
  8860           3.000           0.000           0.000           2.291           0.000           0.000           0.000
  8870           3.000           0.000           0.000           2.293           0.000           0.000           0.000
  8880           3.000           0.000           0.000           2.296           0.000           0.000           0.000
  8890           3.000           0.000           0.000           2.298           0.000           0.000           0.000
  8900           3.000           0.000           0.000           2.301           0.000           0.000           0.000
  8910           3.000           0.000           0.000           2.303           0.000           0.000           0.000
  8920           3.000           0.000           0.000           2.306           0.000           0.000           0.000
  8930           3.000           0.000           0.000           2.309           0.000           0.000           0.000
  8940           3.000           0.000           0.000           2.311           0.000           0.000           0.000
  8950           3.000           0.000           0.000           2.314           0.000           0.000           0.000
  8960           3.000           0.000           0.000           2.316           0.000           0.000           0.000
  8970           3.000           0.000           0.000           2.319           0.000           0.000           0.000
  8980           3.000           0.000           0.000           2.322           0.000           0.000           0.000
  8990           3.000           0.000           0.000           2.324           0.000           0.000           0.000
  9000           3.000           0.000           0.000           2.327           0.000           0.000           0.000
  9010           3.000           0.000           0.000           2.329           0.000           0.000           0.000
  9020           3.000           0.000           0.000           2.332           0.000           0.000           0.000
  9030           3.000           0.000           0.000           2.334           0.000           0.000           0.000
  9040           3.000           0.000           0.000           2.337           0.000           0.000           0.000
  9050           3.000           0.000           0.000           2.340           0.000           0.000           0.000
  9060           3.000           0.000           0.000           2.342           0.000           0.000           0.000
  9070           3.000           0.000           0.000           2.345           0.000           0.000           0.000
  9080           3.000           0.000           0.000           2.347           0.000           0.000           0.000
  9090           3.000           0.000           0.000           2.350           0.000           0.000           0.000
  9100           3.000           0.000           0.000           2.353           0.000           0.000           0.000
  9110           3.000           0.000           0.000           2.355           0.000           0.000           0.000
  9120           3.000           0.000           0.000           2.358           0.000           0.000           0.000
  9130           3.000           0.000           0.000           2.360           0.000           0.000           0.000
  9140           3.000           0.000           0.000           2.363           0.000           0.000           0.000
  9150           3.000           0.000           0.000           2.366           0.000           0.000           0.000
  9160           3.000           0.000           0.000           2.368           0.000           0.000           0.000
  9170           3.000           0.000           0.000           2.371           0.000           0.000           0.000
  9180           3.000           0.000           0.000           2.373           0.000           0.000           0.000
  9190           3.000           0.000           0.000           2.376           0.000           0.000           0.000
  9200           3.000           0.000           0.000           2.378           0.000           0.000           0.000
  9210           3.000           0.000           0.000           2.381           0.000           0.000           0.000
  9220           3.000           0.000           0.000           2.384           0.000           0.000           0.000
  9230           3.000           0.000           0.000           2.386           0.000           0.000           0.000
  9240           3.000           0.000           0.000           2.389           0.000           0.000           0.000
  9250           3.000           0.000           0.000           2.391           0.000           0.000           0.000
  9260           3.000           0.000           0.000           2.394           0.000           0.000           0.000
  9270           3.000           0.000           0.000           2.397           0.000           0.000           0.000
  9280           3.000           0.000           0.000           2.399           0.000           0.000           0.000
  9290           3.000           0.000           0.000           2.402           0.000           0.000           0.000
  9300           3.000           0.000           0.000           2.404           0.000           0.000           0.000
  9310           3.000           0.000           0.000           2.407           0.000           0.000           0.000
  9320           3.000           0.000           0.000           2.409           0.000           0.000           0.000
  9330           3.000           0.000           0.000           2.412           0.000           0.000           0.000
  9340           3.000           0.000           0.000           2.415           0.000           0.000           0.000
  9350           3.000           0.000           0.000           2.417           0.000           0.000           0.000
  9360           3.000           0.000           0.000           2.420           0.000           0.000           0.000
  9370           3.000           0.000           0.000           2.422           0.000           0.000           0.000
  9380           3.000           0.000           0.000           2.425           0.000           0.000           0.000
  9390           3.000           0.000           0.000           2.428           0.000           0.000           0.000
  9400           3.000           0.000           0.000           2.430           0.000           0.000           0.000
  9410           3.000           0.000           0.000           2.433           0.000           0.000           0.000
  9420           3.000           0.000           0.000           2.435           0.000           0.000           0.000
  9430           3.000           0.000           0.000           2.438           0.000           0.000           0.000
  9440           3.000           0.000           0.000           2.440           0.000           0.000           0.000
  9450           3.000           0.000           0.000           2.443           0.000           0.000           0.000
  9460           3.000           0.000           0.000           2.446           0.000           0.000           0.000
  9470           3.000           0.000           0.000           2.448           0.000           0.000           0.000
  9480           3.000           0.000           0.000           2.451           0.000           0.000           0.000
  9490           3.000           0.000           0.000           2.453           0.000           0.000           0.000
  9500           3.000           0.000           0.000           2.456           0.000           0.000           0.000
  9510           3.000           0.000           0.000           2.459           0.000           0.000           0.000
  9520           3.000           0.000           0.000           2.461           0.000           0.000           0.000
  9530           3.000           0.000           0.000           2.464           0.000           0.000           0.000
  9540           3.000           0.000           0.000           2.466           0.000           0.000           0.000
  9550           3.000           0.000           0.000           2.469           0.000           0.000           0.000
  9560           3.000           0.000           0.000           2.472           0.000           0.000           0.000
  9570           3.000           0.000           0.000           2.474           0.000           0.000           0.000
  9580           3.000           0.000           0.000           2.477           0.000           0.000           0.000
  9590           3.000           0.000           0.000           2.479           0.000           0.000           0.000
  9600           3.000           0.000           0.000           2.482           0.000           0.000           0.000
  9610           3.000           0.000           0.000           2.484           0.000           0.000           0.000
  9620           3.000           0.000           0.000           2.487           0.000           0.000           0.000
  9630           3.000           0.000           0.000           2.490           0.000           0.000           0.000
  9640           3.000           0.000           0.000           2.492           0.000           0.000           0.000
  9650           3.000           0.000           0.000           2.495           0.000           0.000           0.000
  9660           3.000           0.000           0.000           2.497           0.000           0.000           0.000
  9670           3.000           0.000           0.000           2.500           0.000           0.000           0.000
  9680           3.000           0.000           0.000           2.503           0.000           0.000           0.000
  9690           3.000           0.000           0.000           2.505           0.000           0.000           0.000
  9700           3.000           0.000           0.000           2.508           0.000           0.000           0.000
  9710           3.000           0.000           0.000           2.510           0.000           0.000           0.000
  9720           3.000           0.000           0.000           2.513           0.000           0.000           0.000
  9730           3.000           0.000           0.000           2.515           0.000           0.000           0.000
  9740           3.000           0.000           0.000           2.518           0.000           0.000           0.000
  9750           3.000           0.000           0.000           2.521           0.000           0.000           0.000
  9760           3.000           0.000           0.000           2.523           0.000           0.000           0.000
  9770           3.000           0.000           0.000           2.526           0.000           0.000           0.000
  9780           3.000           0.000           0.000           2.528           0.000           0.000           0.000
  9790           3.000           0.000           0.000           2.531           0.000           0.000           0.000
  9800           3.000           0.000           0.000           2.534           0.000           0.000           0.000
  9810           3.000           0.000           0.000           2.536           0.000           0.000           0.000
  9820           3.000           0.000           0.000           2.539           0.000           0.000           0.000
  9830           3.000           0.000           0.000           2.541           0.000           0.000           0.000
  9840           3.000           0.000           0.000           2.544           0.000           0.000           0.000
  9850           3.000           0.000           0.000           2.546           0.000           0.000           0.000
  9860           3.000           0.000           0.000           2.549           0.000           0.000           0.000
  9870           3.000           0.000           0.000           2.552           0.000           0.000           0.000
  9880           3.000           0.000           0.000           2.554           0.000           0.000           0.000
  9890           3.000           0.000           0.000           2.557           0.000           0.000           0.000
  9900           3.000           0.000           0.000           2.559           0.000           0.000           0.000
  9910           3.000           0.000           0.000           2.562           0.000           0.000           0.000
  9920           3.000           0.000           0.000           2.565           0.000           0.000           0.000
  9930           3.000           0.000           0.000           2.567           0.000           0.000           0.000
  9940           3.000           0.000           0.000           2.570           0.000           0.000           0.000
  9950           3.000           0.000           0.000           2.572           0.000           0.000           0.000
  9960           3.000           0.000           0.000           2.575           0.000           0.000           0.000
  9970           3.000           0.000           0.000           2.577           0.000           0.000           0.000
  9980           3.000           0.000           0.000           2.580           0.000           0.000           0.000
  9990           3.000           0.000           0.000           2.583           0.000           0.000           0.000
 10000           3.000           0.000           0.000           2.585           0.000           0.000           0.000
