#   T(K)    C_v(k_B/fu)        Gamma     alpha_v*10^6(K^-1)   E_th(eV)                       P_th(GPa)
#                                                                         ----------------------------------------------
#                                                                          {sum G_i.U_iV}  {int G.C_v/V dT}    {G.U/V}
# ----------------------------------------------------------------------------------------------------------------------
    10           0.000           0.113           0.000           0.158           1.136           0.000           0.203
    20           0.004           0.158           0.000           0.158           1.136           0.000           0.284
    30           0.019           0.199           0.002           0.158           1.136           0.000           0.357
    40           0.053           0.235           0.009           0.158           1.136           0.000           0.422
    50           0.117           0.262           0.022           0.158           1.137           0.000           0.471
    60           0.219           0.285           0.046           0.158           1.137           0.001           0.512
    70           0.357           0.305           0.082           0.159           1.138           0.002           0.550
    80           0.527           0.325           0.129           0.159           1.139           0.004           0.587
    90           0.722           0.344           0.188           0.160           1.141           0.006           0.623
   100           0.933           0.362           0.257           0.160           1.144           0.010           0.658
   110           1.154           0.378           0.334           0.161           1.148           0.014           0.693
   120           1.380           0.394           0.417           0.162           1.153           0.019           0.726
   130           1.607           0.408           0.504           0.164           1.159           0.026           0.759
   140           1.831           0.421           0.594           0.165           1.166           0.033           0.790
   150           2.050           0.433           0.685           0.167           1.174           0.042           0.820
   160           2.261           0.444           0.775           0.169           1.183           0.052           0.850
   170           2.463           0.454           0.863           0.171           1.193           0.063           0.879
   180           2.656           0.462           0.949           0.173           1.205           0.075           0.908
   190           2.839           0.470           1.033           0.175           1.217           0.088           0.936
   200           3.012           0.477           1.113           0.178           1.231           0.102           0.963
   210           3.175           0.484           1.189           0.180           1.246           0.117           0.991
   220           3.329           0.489           1.262           0.183           1.261           0.133           1.018
   230           3.473           0.495           1.331           0.186           1.277           0.150           1.045
   240           3.607           0.499           1.396           0.189           1.295           0.167           1.073
   250           3.734           0.503           1.458           0.192           1.313           0.186           1.100
   260           3.852           0.507           1.516           0.196           1.331           0.205           1.127
   270           3.962           0.511           1.570           0.199           1.351           0.225           1.154
   280           4.065           0.514           1.622           0.202           1.371           0.245           1.182
   290           4.162           0.517           1.670           0.206           1.392           0.266           1.210
   300           4.252           0.520           1.715           0.210           1.413           0.288           1.237
   310           4.337           0.522           1.758           0.213           1.435           0.310           1.265
   320           4.416           0.524           1.798           0.217           1.457           0.333           1.293
   330           4.491           0.527           1.836           0.221           1.480           0.356           1.321
   340           4.560           0.528           1.871           0.225           1.504           0.379           1.349
   350           4.626           0.530           1.905           0.229           1.528           0.403           1.378
   360           4.687           0.532           1.936           0.233           1.552           0.428           1.406
   370           4.744           0.533           1.966           0.237           1.576           0.452           1.435
   380           4.799           0.535           1.994           0.241           1.601           0.478           1.464
   390           4.850           0.536           2.020           0.245           1.627           0.503           1.493
   400           4.897           0.537           2.045           0.249           1.652           0.529           1.522
   410           4.943           0.539           2.068           0.254           1.678           0.555           1.551
   420           4.985           0.540           2.090           0.258           1.704           0.581           1.581
   430           5.026           0.541           2.111           0.262           1.731           0.608           1.610
   440           5.064           0.542           2.131           0.266           1.758           0.635           1.640
   450           5.100           0.543           2.150           0.271           1.785           0.662           1.669
   460           5.134           0.543           2.168           0.275           1.812           0.689           1.699
   470           5.166           0.544           2.184           0.280           1.839           0.717           1.729
   480           5.196           0.545           2.200           0.284           1.867           0.744           1.759
   490           5.225           0.546           2.216           0.289           1.895           0.772           1.789
   500           5.253           0.546           2.230           0.293           1.923           0.800           1.819
   510           5.279           0.547           2.244           0.298           1.951           0.829           1.849
   520           5.304           0.547           2.257           0.302           1.979           0.857           1.880
   530           5.327           0.548           2.269           0.307           2.008           0.886           1.910
   540           5.350           0.549           2.281           0.311           2.036           0.914           1.941
   550           5.371           0.549           2.292           0.316           2.065           0.943           1.971
   560           5.391           0.550           2.303           0.321           2.094           0.972           2.002
   570           5.411           0.550           2.313           0.325           2.123           1.001           2.033
   580           5.429           0.550           2.323           0.330           2.152           1.031           2.063
   590           5.447           0.551           2.332           0.335           2.182           1.060           2.094
   600           5.464           0.551           2.341           0.339           2.211           1.089           2.125
   610           5.480           0.552           2.350           0.344           2.241           1.119           2.156
   620           5.496           0.552           2.358           0.349           2.270           1.149           2.187
   630           5.510           0.552           2.366           0.354           2.300           1.178           2.218
   640           5.525           0.553           2.373           0.358           2.330           1.208           2.249
   650           5.538           0.553           2.380           0.363           2.360           1.238           2.281
   660           5.551           0.553           2.387           0.368           2.390           1.268           2.312
   670           5.564           0.553           2.394           0.373           2.420           1.299           2.343
   680           5.576           0.554           2.400           0.377           2.450           1.329           2.375
   690           5.587           0.554           2.406           0.382           2.480           1.359           2.406
   700           5.598           0.554           2.412           0.387           2.511           1.389           2.437
   710           5.609           0.554           2.418           0.392           2.541           1.420           2.469
   720           5.619           0.555           2.423           0.397           2.571           1.450           2.500
   730           5.629           0.555           2.429           0.402           2.602           1.481           2.532
   740           5.638           0.555           2.434           0.406           2.633           1.512           2.563
   750           5.647           0.555           2.438           0.411           2.663           1.542           2.595
   760           5.656           0.556           2.443           0.416           2.694           1.573           2.627
   770           5.665           0.556           2.448           0.421           2.725           1.604           2.658
   780           5.673           0.556           2.452           0.426           2.756           1.635           2.690
   790           5.681           0.556           2.456           0.431           2.787           1.666           2.722
   800           5.688           0.556           2.460           0.436           2.818           1.697           2.754
   810           5.696           0.556           2.464           0.441           2.849           1.728           2.785
   820           5.703           0.557           2.468           0.446           2.880           1.759           2.817
   830           5.710           0.557           2.471           0.450           2.911           1.790           2.849
   840           5.716           0.557           2.475           0.455           2.942           1.821           2.881
   850           5.723           0.557           2.478           0.460           2.973           1.852           2.913
   860           5.729           0.557           2.482           0.465           3.004           1.883           2.945
   870           5.735           0.557           2.485           0.470           3.035           1.915           2.977
   880           5.740           0.557           2.488           0.475           3.067           1.946           3.009
   890           5.746           0.558           2.491           0.480           3.098           1.977           3.041
   900           5.751           0.558           2.494           0.485           3.130           2.009           3.073
   910           5.757           0.558           2.497           0.490           3.161           2.040           3.105
   920           5.762           0.558           2.499           0.495           3.192           2.072           3.137
   930           5.767           0.558           2.502           0.500           3.224           2.103           3.169
   940           5.772           0.558           2.504           0.505           3.255           2.135           3.201
   950           5.776           0.558           2.507           0.510           3.287           2.166           3.233
   960           5.781           0.558           2.509           0.515           3.318           2.198           3.265
   970           5.785           0.558           2.512           0.520           3.350           2.230           3.297
   980           5.789           0.558           2.514           0.525           3.382           2.261           3.330
   990           5.793           0.559           2.516           0.530           3.413           2.293           3.362
  1000           5.797           0.559           2.518           0.535           3.445           2.325           3.394
  1010           5.801           0.559           2.520           0.540           3.477           2.356           3.426
  1020           5.805           0.559           2.522           0.545           3.509           2.388           3.459
  1030           5.809           0.559           2.524           0.550           3.540           2.420           3.491
  1040           5.812           0.559           2.526           0.555           3.572           2.452           3.523
  1050           5.816           0.559           2.528           0.560           3.604           2.483           3.555
  1060           5.819           0.559           2.530           0.565           3.636           2.515           3.588
  1070           5.822           0.559           2.532           0.570           3.668           2.547           3.620
  1080           5.826           0.559           2.533           0.575           3.699           2.579           3.652
  1090           5.829           0.559           2.535           0.580           3.731           2.611           3.685
  1100           5.832           0.559           2.537           0.585           3.763           2.643           3.717
  1110           5.835           0.559           2.538           0.590           3.795           2.675           3.749
  1120           5.838           0.559           2.540           0.595           3.827           2.707           3.782
  1130           5.840           0.560           2.541           0.600           3.859           2.739           3.814
  1140           5.843           0.560           2.543           0.605           3.891           2.771           3.846
  1150           5.846           0.560           2.544           0.610           3.923           2.803           3.879
  1160           5.848           0.560           2.545           0.615           3.955           2.835           3.911
  1170           5.851           0.560           2.547           0.620           3.987           2.867           3.944
  1180           5.853           0.560           2.548           0.625           4.019           2.899           3.976
  1190           5.856           0.560           2.549           0.630           4.051           2.931           4.009
  1200           5.858           0.560           2.551           0.635           4.084           2.963           4.041
  1210           5.860           0.560           2.552           0.640           4.116           2.995           4.074
  1220           5.863           0.560           2.553           0.645           4.148           3.028           4.106
  1230           5.865           0.560           2.554           0.650           4.180           3.060           4.139
  1240           5.867           0.560           2.555           0.656           4.212           3.092           4.171
  1250           5.869           0.560           2.557           0.661           4.244           3.124           4.204
  1260           5.871           0.560           2.558           0.666           4.276           3.156           4.236
  1270           5.873           0.560           2.559           0.671           4.309           3.188           4.269
  1280           5.875           0.560           2.560           0.676           4.341           3.221           4.301
  1290           5.877           0.560           2.561           0.681           4.373           3.253           4.334
  1300           5.879           0.560           2.562           0.686           4.405           3.285           4.366
  1310           5.881           0.560           2.563           0.691           4.438           3.317           4.399
  1320           5.882           0.560           2.564           0.696           4.470           3.350           4.431
  1330           5.884           0.560           2.565           0.701           4.502           3.382           4.464
  1340           5.886           0.561           2.565           0.706           4.534           3.414           4.496
  1350           5.887           0.561           2.566           0.711           4.567           3.447           4.529
  1360           5.889           0.561           2.567           0.716           4.599           3.479           4.562
  1370           5.891           0.561           2.568           0.721           4.631           3.511           4.594
  1380           5.892           0.561           2.569           0.726           4.664           3.544           4.627
  1390           5.894           0.561           2.570           0.732           4.696           3.576           4.659
  1400           5.895           0.561           2.571           0.737           4.728           3.608           4.692
  1410           5.897           0.561           2.571           0.742           4.761           3.641           4.725
  1420           5.898           0.561           2.572           0.747           4.793           3.673           4.757
  1430           5.899           0.561           2.573           0.752           4.826           3.705           4.790
  1440           5.901           0.561           2.574           0.757           4.858           3.738           4.823
  1450           5.902           0.561           2.574           0.762           4.890           3.770           4.855
  1460           5.904           0.561           2.575           0.767           4.923           3.803           4.888
  1470           5.905           0.561           2.576           0.772           4.955           3.835           4.921
  1480           5.906           0.561           2.576           0.777           4.988           3.867           4.953
  1490           5.907           0.561           2.577           0.782           5.020           3.900           4.986
  1500           5.909           0.561           2.578           0.787           5.052           3.932           5.019
  1510           5.910           0.561           2.578           0.793           5.085           3.965           5.051
  1520           5.911           0.561           2.579           0.798           5.117           3.997           5.084
  1530           5.912           0.561           2.580           0.803           5.150           4.030           5.117
  1540           5.913           0.561           2.580           0.808           5.182           4.062           5.149
  1550           5.914           0.561           2.581           0.813           5.215           4.095           5.182
  1560           5.915           0.561           2.581           0.818           5.247           4.127           5.215
  1570           5.916           0.561           2.582           0.823           5.280           4.160           5.247
  1580           5.917           0.561           2.582           0.828           5.312           4.192           5.280
  1590           5.918           0.561           2.583           0.833           5.345           4.225           5.313
  1600           5.919           0.561           2.584           0.838           5.377           4.257           5.346
  1610           5.920           0.561           2.584           0.844           5.410           4.290           5.378
  1620           5.921           0.561           2.585           0.849           5.442           4.322           5.411
  1630           5.922           0.561           2.585           0.854           5.475           4.355           5.444
  1640           5.923           0.561           2.586           0.859           5.507           4.387           5.476
  1650           5.924           0.561           2.586           0.864           5.540           4.420           5.509
  1660           5.925           0.561           2.587           0.869           5.573           4.453           5.542
  1670           5.926           0.561           2.587           0.874           5.605           4.485           5.575
  1680           5.927           0.561           2.588           0.879           5.638           4.518           5.607
  1690           5.928           0.561           2.588           0.884           5.670           4.550           5.640
  1700           5.929           0.561           2.588           0.890           5.703           4.583           5.673
  1710           5.929           0.561           2.589           0.895           5.735           4.615           5.706
  1720           5.930           0.561           2.589           0.900           5.768           4.648           5.738
  1730           5.931           0.561           2.590           0.905           5.801           4.681           5.771
  1740           5.932           0.561           2.590           0.910           5.833           4.713           5.804
  1750           5.933           0.561           2.591           0.915           5.866           4.746           5.837
  1760           5.933           0.562           2.591           0.920           5.898           4.778           5.870
  1770           5.934           0.562           2.591           0.925           5.931           4.811           5.902
  1780           5.935           0.562           2.592           0.930           5.964           4.844           5.935
  1790           5.936           0.562           2.592           0.936           5.996           4.876           5.968
  1800           5.936           0.562           2.593           0.941           6.029           4.909           6.001
  1810           5.937           0.562           2.593           0.946           6.062           4.942           6.033
  1820           5.938           0.562           2.593           0.951           6.094           4.974           6.066
  1830           5.938           0.562           2.594           0.956           6.127           5.007           6.099
  1840           5.939           0.562           2.594           0.961           6.160           5.040           6.132
  1850           5.940           0.562           2.594           0.966           6.192           5.072           6.165
  1860           5.940           0.562           2.595           0.971           6.225           5.105           6.198
  1870           5.941           0.562           2.595           0.976           6.258           5.137           6.230
  1880           5.941           0.562           2.595           0.982           6.290           5.170           6.263
  1890           5.942           0.562           2.596           0.987           6.323           5.203           6.296
  1900           5.943           0.562           2.596           0.992           6.356           5.236           6.329
  1910           5.943           0.562           2.596           0.997           6.388           5.268           6.362
  1920           5.944           0.562           2.597           1.002           6.421           5.301           6.394
  1930           5.944           0.562           2.597           1.007           6.454           5.334           6.427
  1940           5.945           0.562           2.597           1.012           6.486           5.366           6.460
  1950           5.946           0.562           2.598           1.017           6.519           5.399           6.493
  1960           5.946           0.562           2.598           1.023           6.552           5.432           6.526
  1970           5.947           0.562           2.598           1.028           6.584           5.464           6.559
  1980           5.947           0.562           2.598           1.033           6.617           5.497           6.591
  1990           5.948           0.562           2.599           1.038           6.650           5.530           6.624
  2000           5.948           0.562           2.599           1.043           6.682           5.562           6.657
  2010           5.949           0.562           2.599           1.048           6.715           5.595           6.690
  2020           5.949           0.562           2.599           1.053           6.748           5.628           6.723
  2030           5.950           0.562           2.600           1.058           6.781           5.661           6.756
  2040           5.950           0.562           2.600           1.064           6.813           5.693           6.788
  2050           5.951           0.562           2.600           1.069           6.846           5.726           6.821
  2060           5.951           0.562           2.601           1.074           6.879           5.759           6.854
  2070           5.952           0.562           2.601           1.079           6.912           5.792           6.887
  2080           5.952           0.562           2.601           1.084           6.944           5.824           6.920
  2090           5.953           0.562           2.601           1.089           6.977           5.857           6.953
  2100           5.953           0.562           2.602           1.094           7.010           5.890           6.986
  2110           5.953           0.562           2.602           1.099           7.043           5.923           7.018
  2120           5.954           0.562           2.602           1.105           7.075           5.955           7.051
  2130           5.954           0.562           2.602           1.110           7.108           5.988           7.084
  2140           5.955           0.562           2.602           1.115           7.141           6.021           7.117
  2150           5.955           0.562           2.603           1.120           7.174           6.054           7.150
  2160           5.956           0.562           2.603           1.125           7.206           6.086           7.183
  2170           5.956           0.562           2.603           1.130           7.239           6.119           7.216
  2180           5.956           0.562           2.603           1.135           7.272           6.152           7.249
  2190           5.957           0.562           2.604           1.141           7.305           6.185           7.281
  2200           5.957           0.562           2.604           1.146           7.337           6.217           7.314
  2210           5.958           0.562           2.604           1.151           7.370           6.250           7.347
  2220           5.958           0.562           2.604           1.156           7.403           6.283           7.380
  2230           5.958           0.562           2.604           1.161           7.436           6.316           7.413
  2240           5.959           0.562           2.605           1.166           7.469           6.349           7.446
  2250           5.959           0.562           2.605           1.171           7.501           6.381           7.479
  2260           5.959           0.562           2.605           1.176           7.534           6.414           7.512
  2270           5.960           0.562           2.605           1.182           7.567           6.447           7.545
  2280           5.960           0.562           2.605           1.187           7.600           6.480           7.577
  2290           5.960           0.562           2.606           1.192           7.632           6.513           7.610
  2300           5.961           0.562           2.606           1.197           7.665           6.545           7.643
  2310           5.961           0.562           2.606           1.202           7.698           6.578           7.676
  2320           5.961           0.562           2.606           1.207           7.731           6.611           7.709
  2330           5.962           0.562           2.606           1.212           7.764           6.644           7.742
  2340           5.962           0.562           2.606           1.218           7.797           6.677           7.775
  2350           5.962           0.562           2.607           1.223           7.829           6.709           7.808
  2360           5.963           0.562           2.607           1.228           7.862           6.742           7.841
  2370           5.963           0.562           2.607           1.233           7.895           6.775           7.873
  2380           5.963           0.562           2.607           1.238           7.928           6.808           7.906
  2390           5.964           0.562           2.607           1.243           7.961           6.841           7.939
  2400           5.964           0.562           2.607           1.248           7.993           6.873           7.972
  2410           5.964           0.562           2.608           1.254           8.026           6.906           8.005
  2420           5.965           0.562           2.608           1.259           8.059           6.939           8.038
  2430           5.965           0.562           2.608           1.264           8.092           6.972           8.071
  2440           5.965           0.562           2.608           1.269           8.125           7.005           8.104
  2450           5.965           0.562           2.608           1.274           8.158           7.038           8.137
  2460           5.966           0.562           2.608           1.279           8.190           7.070           8.170
  2470           5.966           0.562           2.608           1.284           8.223           7.103           8.203
  2480           5.966           0.562           2.609           1.289           8.256           7.136           8.236
  2490           5.967           0.562           2.609           1.295           8.289           7.169           8.268
  2500           5.967           0.562           2.609           1.300           8.322           7.202           8.301
  2510           5.967           0.562           2.609           1.305           8.355           7.235           8.334
  2520           5.967           0.562           2.609           1.310           8.387           7.267           8.367
  2530           5.968           0.562           2.609           1.315           8.420           7.300           8.400
  2540           5.968           0.562           2.609           1.320           8.453           7.333           8.433
  2550           5.968           0.562           2.610           1.325           8.486           7.366           8.466
  2560           5.968           0.562           2.610           1.331           8.519           7.399           8.499
  2570           5.969           0.562           2.610           1.336           8.552           7.432           8.532
  2580           5.969           0.562           2.610           1.341           8.584           7.465           8.565
  2590           5.969           0.562           2.610           1.346           8.617           7.497           8.598
  2600           5.969           0.562           2.610           1.351           8.650           7.530           8.631
  2610           5.970           0.562           2.610           1.356           8.683           7.563           8.664
  2620           5.970           0.562           2.610           1.361           8.716           7.596           8.696
  2630           5.970           0.562           2.611           1.367           8.749           7.629           8.729
  2640           5.970           0.562           2.611           1.372           8.782           7.662           8.762
  2650           5.970           0.562           2.611           1.377           8.814           7.695           8.795
  2660           5.971           0.562           2.611           1.382           8.847           7.727           8.828
  2670           5.971           0.562           2.611           1.387           8.880           7.760           8.861
  2680           5.971           0.562           2.611           1.392           8.913           7.793           8.894
  2690           5.971           0.562           2.611           1.398           8.946           7.826           8.927
  2700           5.972           0.562           2.611           1.403           8.979           7.859           8.960
  2710           5.972           0.562           2.612           1.408           9.012           7.892           8.993
  2720           5.972           0.562           2.612           1.413           9.045           7.925           9.026
  2730           5.972           0.562           2.612           1.418           9.077           7.958           9.059
  2740           5.972           0.562           2.612           1.423           9.110           7.990           9.092
  2750           5.973           0.562           2.612           1.428           9.143           8.023           9.125
  2760           5.973           0.562           2.612           1.434           9.176           8.056           9.158
  2770           5.973           0.562           2.612           1.439           9.209           8.089           9.191
  2780           5.973           0.562           2.612           1.444           9.242           8.122           9.224
  2790           5.973           0.562           2.612           1.449           9.275           8.155           9.256
  2800           5.974           0.562           2.612           1.454           9.308           8.188           9.289
  2810           5.974           0.562           2.613           1.459           9.340           8.221           9.322
  2820           5.974           0.562           2.613           1.464           9.373           8.253           9.355
  2830           5.974           0.562           2.613           1.470           9.406           8.286           9.388
  2840           5.974           0.562           2.613           1.475           9.439           8.319           9.421
  2850           5.974           0.562           2.613           1.480           9.472           8.352           9.454
  2860           5.975           0.562           2.613           1.485           9.505           8.385           9.487
  2870           5.975           0.562           2.613           1.490           9.538           8.418           9.520
  2880           5.975           0.562           2.613           1.495           9.571           8.451           9.553
  2890           5.975           0.562           2.613           1.500           9.604           8.484           9.586
  2900           5.975           0.562           2.613           1.506           9.636           8.517           9.619
  2910           5.975           0.562           2.614           1.511           9.669           8.549           9.652
  2920           5.976           0.562           2.614           1.516           9.702           8.582           9.685
  2930           5.976           0.562           2.614           1.521           9.735           8.615           9.718
  2940           5.976           0.562           2.614           1.526           9.768           8.648           9.751
  2950           5.976           0.562           2.614           1.531           9.801           8.681           9.784
  2960           5.976           0.562           2.614           1.537           9.834           8.714           9.817
  2970           5.976           0.562           2.614           1.542           9.867           8.747           9.850
  2980           5.977           0.562           2.614           1.547           9.900           8.780           9.883
  2990           5.977           0.562           2.614           1.552           9.933           8.813           9.916
  3000           5.977           0.562           2.614           1.557           9.966           8.846           9.949
  3010           5.977           0.562           2.614           1.562           9.998           8.879           9.982
  3020           5.977           0.562           2.614           1.567          10.031           8.911          10.015
  3030           5.977           0.562           2.615           1.573          10.064           8.944          10.047
  3040           5.978           0.562           2.615           1.578          10.097           8.977          10.080
  3050           5.978           0.562           2.615           1.583          10.130           9.010          10.113
  3060           5.978           0.562           2.615           1.588          10.163           9.043          10.146
  3070           5.978           0.562           2.615           1.593          10.196           9.076          10.179
  3080           5.978           0.562           2.615           1.598          10.229           9.109          10.212
  3090           5.978           0.562           2.615           1.603          10.262           9.142          10.245
  3100           5.978           0.562           2.615           1.609          10.295           9.175          10.278
  3110           5.979           0.562           2.615           1.614          10.328           9.208          10.311
  3120           5.979           0.562           2.615           1.619          10.360           9.241          10.344
  3130           5.979           0.562           2.615           1.624          10.393           9.274          10.377
  3140           5.979           0.562           2.615           1.629          10.426           9.306          10.410
  3150           5.979           0.562           2.615           1.634          10.459           9.339          10.443
  3160           5.979           0.562           2.616           1.640          10.492           9.372          10.476
  3170           5.979           0.562           2.616           1.645          10.525           9.405          10.509
  3180           5.979           0.562           2.616           1.650          10.558           9.438          10.542
  3190           5.980           0.562           2.616           1.655          10.591           9.471          10.575
  3200           5.980           0.562           2.616           1.660          10.624           9.504          10.608
  3210           5.980           0.562           2.616           1.665          10.657           9.537          10.641
  3220           5.980           0.562           2.616           1.670          10.690           9.570          10.674
  3230           5.980           0.562           2.616           1.676          10.723           9.603          10.707
  3240           5.980           0.562           2.616           1.681          10.756           9.636          10.740
  3250           5.980           0.562           2.616           1.686          10.789           9.669          10.773
  3260           5.980           0.562           2.616           1.691          10.821           9.702          10.806
  3270           5.981           0.563           2.616           1.696          10.854           9.734          10.839
  3280           5.981           0.563           2.616           1.701          10.887           9.767          10.872
  3290           5.981           0.563           2.616           1.707          10.920           9.800          10.905
  3300           5.981           0.563           2.616           1.712          10.953           9.833          10.938
  3310           5.981           0.563           2.617           1.717          10.986           9.866          10.971
  3320           5.981           0.563           2.617           1.722          11.019           9.899          11.004
  3330           5.981           0.563           2.617           1.727          11.052           9.932          11.037
  3340           5.981           0.563           2.617           1.732          11.085           9.965          11.070
  3350           5.981           0.563           2.617           1.737          11.118           9.998          11.103
  3360           5.982           0.563           2.617           1.743          11.151          10.031          11.136
  3370           5.982           0.563           2.617           1.748          11.184          10.064          11.169
  3380           5.982           0.563           2.617           1.753          11.217          10.097          11.202
  3390           5.982           0.563           2.617           1.758          11.250          10.130          11.235
  3400           5.982           0.563           2.617           1.763          11.283          10.163          11.268
  3410           5.982           0.563           2.617           1.768          11.315          10.196          11.301
  3420           5.982           0.563           2.617           1.774          11.348          10.229          11.334
  3430           5.982           0.563           2.617           1.779          11.381          10.261          11.367
  3440           5.982           0.563           2.617           1.784          11.414          10.294          11.400
  3450           5.983           0.563           2.617           1.789          11.447          10.327          11.433
  3460           5.983           0.563           2.617           1.794          11.480          10.360          11.466
  3470           5.983           0.563           2.617           1.799          11.513          10.393          11.499
  3480           5.983           0.563           2.617           1.804          11.546          10.426          11.532
  3490           5.983           0.563           2.618           1.810          11.579          10.459          11.564
  3500           5.983           0.563           2.618           1.815          11.612          10.492          11.597
  3510           5.983           0.563           2.618           1.820          11.645          10.525          11.630
  3520           5.983           0.563           2.618           1.825          11.678          10.558          11.663
  3530           5.983           0.563           2.618           1.830          11.711          10.591          11.696
  3540           5.983           0.563           2.618           1.835          11.744          10.624          11.729
  3550           5.983           0.563           2.618           1.841          11.777          10.657          11.762
  3560           5.984           0.563           2.618           1.846          11.810          10.690          11.795
  3570           5.984           0.563           2.618           1.851          11.843          10.723          11.828
  3580           5.984           0.563           2.618           1.856          11.876          10.756          11.861
  3590           5.984           0.563           2.618           1.861          11.909          10.789          11.894
  3600           5.984           0.563           2.618           1.866          11.942          10.822          11.927
  3610           5.984           0.563           2.618           1.871          11.974          10.855          11.960
  3620           5.984           0.563           2.618           1.877          12.007          10.888          11.993
  3630           5.984           0.563           2.618           1.882          12.040          10.921          12.026
  3640           5.984           0.563           2.618           1.887          12.073          10.953          12.059
  3650           5.984           0.563           2.618           1.892          12.106          10.986          12.092
  3660           5.984           0.563           2.618           1.897          12.139          11.019          12.125
  3670           5.985           0.563           2.618           1.902          12.172          11.052          12.158
  3680           5.985           0.563           2.618           1.908          12.205          11.085          12.191
  3690           5.985           0.563           2.619           1.913          12.238          11.118          12.224
  3700           5.985           0.563           2.619           1.918          12.271          11.151          12.257
  3710           5.985           0.563           2.619           1.923          12.304          11.184          12.290
  3720           5.985           0.563           2.619           1.928          12.337          11.217          12.323
  3730           5.985           0.563           2.619           1.933          12.370          11.250          12.356
  3740           5.985           0.563           2.619           1.939          12.403          11.283          12.389
  3750           5.985           0.563           2.619           1.944          12.436          11.316          12.422
  3760           5.985           0.563           2.619           1.949          12.469          11.349          12.455
  3770           5.985           0.563           2.619           1.954          12.502          11.382          12.488
  3780           5.985           0.563           2.619           1.959          12.535          11.415          12.521
  3790           5.986           0.563           2.619           1.964          12.568          11.448          12.554
  3800           5.986           0.563           2.619           1.969          12.601          11.481          12.587
  3810           5.986           0.563           2.619           1.975          12.634          11.514          12.620
  3820           5.986           0.563           2.619           1.980          12.667          11.547          12.653
  3830           5.986           0.563           2.619           1.985          12.700          11.580          12.686
  3840           5.986           0.563           2.619           1.990          12.733          11.613          12.719
  3850           5.986           0.563           2.619           1.995          12.766          11.646          12.752
  3860           5.986           0.563           2.619           2.000          12.799          11.679          12.785
  3870           5.986           0.563           2.619           2.006          12.831          11.712          12.818
  3880           5.986           0.563           2.619           2.011          12.864          11.745          12.851
  3890           5.986           0.563           2.619           2.016          12.897          11.778          12.884
  3900           5.986           0.563           2.619           2.021          12.930          11.811          12.917
  3910           5.986           0.563           2.619           2.026          12.963          11.844          12.950
  3920           5.986           0.563           2.619           2.031          12.996          11.876          12.983
  3930           5.987           0.563           2.619           2.037          13.029          11.909          13.016
  3940           5.987           0.563           2.620           2.042          13.062          11.942          13.049
  3950           5.987           0.563           2.620           2.047          13.095          11.975          13.082
  3960           5.987           0.563           2.620           2.052          13.128          12.008          13.115
  3970           5.987           0.563           2.620           2.057          13.161          12.041          13.148
  3980           5.987           0.563           2.620           2.062          13.194          12.074          13.181
  3990           5.987           0.563           2.620           2.067          13.227          12.107          13.214
  4000           5.987           0.563           2.620           2.073          13.260          12.140          13.247
  4010           5.987           0.563           2.620           2.078          13.293          12.173          13.280
  4020           5.987           0.563           2.620           2.083          13.326          12.206          13.313
  4030           5.987           0.563           2.620           2.088          13.359          12.239          13.346
  4040           5.987           0.563           2.620           2.093          13.392          12.272          13.379
  4050           5.987           0.563           2.620           2.098          13.425          12.305          13.412
  4060           5.987           0.563           2.620           2.104          13.458          12.338          13.445
  4070           5.987           0.563           2.620           2.109          13.491          12.371          13.478
  4080           5.987           0.563           2.620           2.114          13.524          12.404          13.512
  4090           5.988           0.563           2.620           2.119          13.557          12.437          13.545
  4100           5.988           0.563           2.620           2.124          13.590          12.470          13.578
  4110           5.988           0.563           2.620           2.129          13.623          12.503          13.611
  4120           5.988           0.563           2.620           2.135          13.656          12.536          13.644
  4130           5.988           0.563           2.620           2.140          13.689          12.569          13.677
  4140           5.988           0.563           2.620           2.145          13.722          12.602          13.710
  4150           5.988           0.563           2.620           2.150          13.755          12.635          13.743
  4160           5.988           0.563           2.620           2.155          13.788          12.668          13.776
  4170           5.988           0.563           2.620           2.160          13.821          12.701          13.809
  4180           5.988           0.563           2.620           2.166          13.854          12.734          13.842
  4190           5.988           0.563           2.620           2.171          13.887          12.767          13.875
  4200           5.988           0.563           2.620           2.176          13.920          12.800          13.908
  4210           5.988           0.563           2.620           2.181          13.953          12.833          13.941
  4220           5.988           0.563           2.620           2.186          13.986          12.866          13.974
  4230           5.988           0.563           2.620           2.191          14.019          12.899          14.007
  4240           5.988           0.563           2.620           2.196          14.052          12.932          14.040
  4250           5.988           0.563           2.621           2.202          14.085          12.965          14.073
  4260           5.989           0.563           2.621           2.207          14.118          12.998          14.106
  4270           5.989           0.563           2.621           2.212          14.151          13.031          14.139
  4280           5.989           0.563           2.621           2.217          14.184          13.064          14.172
  4290           5.989           0.563           2.621           2.222          14.217          13.097          14.205
  4300           5.989           0.563           2.621           2.227          14.250          13.130          14.238
  4310           5.989           0.563           2.621           2.233          14.283          13.163          14.271
  4320           5.989           0.563           2.621           2.238          14.316          13.196          14.304
  4330           5.989           0.563           2.621           2.243          14.349          13.229          14.337
  4340           5.989           0.563           2.621           2.248          14.382          13.262          14.370
  4350           5.989           0.563           2.621           2.253          14.415          13.295          14.403
  4360           5.989           0.563           2.621           2.258          14.448          13.328          14.436
  4370           5.989           0.563           2.621           2.264          14.480          13.361          14.469
  4380           5.989           0.563           2.621           2.269          14.513          13.394          14.502
  4390           5.989           0.563           2.621           2.274          14.546          13.427          14.535
  4400           5.989           0.563           2.621           2.279          14.579          13.460          14.568
  4410           5.989           0.563           2.621           2.284          14.612          13.493          14.601
  4420           5.989           0.563           2.621           2.289          14.645          13.526          14.634
  4430           5.989           0.563           2.621           2.295          14.678          13.559          14.667
  4440           5.989           0.563           2.621           2.300          14.711          13.592          14.700
  4450           5.989           0.563           2.621           2.305          14.744          13.625          14.733
  4460           5.990           0.563           2.621           2.310          14.777          13.658          14.766
  4470           5.990           0.563           2.621           2.315          14.810          13.691          14.799
  4480           5.990           0.563           2.621           2.320          14.843          13.724          14.832
  4490           5.990           0.563           2.621           2.326          14.876          13.757          14.865
  4500           5.990           0.563           2.621           2.331          14.909          13.790          14.898
  4510           5.990           0.563           2.621           2.336          14.942          13.823          14.931
  4520           5.990           0.563           2.621           2.341          14.975          13.856          14.964
  4530           5.990           0.563           2.621           2.346          15.008          13.889          14.997
  4540           5.990           0.563           2.621           2.351          15.041          13.922          15.030
  4550           5.990           0.563           2.621           2.356          15.074          13.954          15.063
  4560           5.990           0.563           2.621           2.362          15.107          13.987          15.096
  4570           5.990           0.563           2.621           2.367          15.140          14.020          15.129
  4580           5.990           0.563           2.621           2.372          15.173          14.053          15.162
  4590           5.990           0.563           2.621           2.377          15.206          14.086          15.195
  4600           5.990           0.563           2.621           2.382          15.239          14.119          15.228
  4610           5.990           0.563           2.621           2.387          15.272          14.152          15.261
  4620           5.990           0.563           2.621           2.393          15.305          14.185          15.294
  4630           5.990           0.563           2.621           2.398          15.338          14.218          15.327
  4640           5.990           0.563           2.622           2.403          15.371          14.251          15.360
  4650           5.990           0.563           2.622           2.408          15.404          14.284          15.393
  4660           5.990           0.563           2.622           2.413          15.437          14.317          15.426
  4670           5.990           0.563           2.622           2.418          15.470          14.350          15.459
  4680           5.990           0.563           2.622           2.424          15.503          14.383          15.492
  4690           5.991           0.563           2.622           2.429          15.536          14.416          15.525
  4700           5.991           0.563           2.622           2.434          15.569          14.449          15.559
  4710           5.991           0.563           2.622           2.439          15.602          14.482          15.592
  4720           5.991           0.563           2.622           2.444          15.635          14.515          15.625
  4730           5.991           0.563           2.622           2.449          15.668          14.548          15.658
  4740           5.991           0.563           2.622           2.455          15.701          14.581          15.691
  4750           5.991           0.563           2.622           2.460          15.734          14.614          15.724
  4760           5.991           0.563           2.622           2.465          15.767          14.647          15.757
  4770           5.991           0.563           2.622           2.470          15.800          14.680          15.790
  4780           5.991           0.563           2.622           2.475          15.833          14.713          15.823
  4790           5.991           0.563           2.622           2.480          15.866          14.746          15.856
  4800           5.991           0.563           2.622           2.486          15.899          14.779          15.889
  4810           5.991           0.563           2.622           2.491          15.932          14.812          15.922
  4820           5.991           0.563           2.622           2.496          15.965          14.845          15.955
  4830           5.991           0.563           2.622           2.501          15.998          14.878          15.988
  4840           5.991           0.563           2.622           2.506          16.031          14.911          16.021
  4850           5.991           0.563           2.622           2.511          16.064          14.944          16.054
  4860           5.991           0.563           2.622           2.517          16.097          14.977          16.087
  4870           5.991           0.563           2.622           2.522          16.130          15.010          16.120
  4880           5.991           0.563           2.622           2.527          16.163          15.043          16.153
  4890           5.991           0.563           2.622           2.532          16.196          15.076          16.186
  4900           5.991           0.563           2.622           2.537          16.229          15.109          16.219
  4910           5.991           0.563           2.622           2.542          16.262          15.143          16.252
  4920           5.991           0.563           2.622           2.547          16.295          15.176          16.285
  4930           5.991           0.563           2.622           2.553          16.328          15.209          16.318
  4940           5.991           0.563           2.622           2.558          16.361          15.242          16.351
  4950           5.992           0.563           2.622           2.563          16.394          15.275          16.384
  4960           5.992           0.563           2.622           2.568          16.427          15.308          16.417
  4970           5.992           0.563           2.622           2.573          16.460          15.341          16.450
  4980           5.992           0.563           2.622           2.578          16.493          15.374          16.483
  4990           5.992           0.563           2.622           2.584          16.526          15.407          16.516
  5000           5.992           0.563           2.622           2.589          16.559          15.440          16.549
  5010           5.992           0.563           2.622           2.594          16.592          15.473          16.582
  5020           5.992           0.563           2.622           2.599          16.625          15.506          16.615
  5030           5.992           0.563           2.622           2.604          16.658          15.539          16.648
  5040           5.992           0.563           2.622           2.609          16.691          15.572          16.681
  5050           5.992           0.563           2.622           2.615          16.724          15.605          16.714
  5060           5.992           0.563           2.622           2.620          16.757          15.638          16.747
  5070           5.992           0.563           2.622           2.625          16.790          15.671          16.780
  5080           5.992           0.563           2.622           2.630          16.823          15.704          16.813
  5090           5.992           0.563           2.622           2.635          16.856          15.737          16.846
  5100           5.992           0.563           2.622           2.640          16.889          15.770          16.880
  5110           5.992           0.563           2.622           2.646          16.922          15.803          16.913
  5120           5.992           0.563           2.622           2.651          16.956          15.836          16.946
  5130           5.992           0.563           2.622           2.656          16.989          15.869          16.979
  5140           5.992           0.563           2.622           2.661          17.022          15.902          17.012
  5150           5.992           0.563           2.622           2.666          17.055          15.935          17.045
  5160           5.992           0.563           2.623           2.671          17.088          15.968          17.078
  5170           5.992           0.563           2.623           2.677          17.121          16.001          17.111
  5180           5.992           0.563           2.623           2.682          17.154          16.034          17.144
  5190           5.992           0.563           2.623           2.687          17.187          16.067          17.177
  5200           5.992           0.563           2.623           2.692          17.220          16.100          17.210
  5210           5.992           0.563           2.623           2.697          17.253          16.133          17.243
  5220           5.992           0.563           2.623           2.702          17.286          16.166          17.276
  5230           5.992           0.563           2.623           2.708          17.319          16.199          17.309
  5240           5.992           0.563           2.623           2.713          17.352          16.232          17.342
  5250           5.992           0.563           2.623           2.718          17.385          16.265          17.375
  5260           5.992           0.563           2.623           2.723          17.418          16.298          17.408
  5270           5.993           0.563           2.623           2.728          17.451          16.331          17.441
  5280           5.993           0.563           2.623           2.733          17.484          16.364          17.474
  5290           5.993           0.563           2.623           2.739          17.517          16.397          17.507
  5300           5.993           0.563           2.623           2.744          17.550          16.430          17.540
  5310           5.993           0.563           2.623           2.749          17.583          16.463          17.573
  5320           5.993           0.563           2.623           2.754          17.616          16.496          17.606
  5330           5.993           0.563           2.623           2.759          17.649          16.529          17.639
  5340           5.993           0.563           2.623           2.764          17.682          16.562          17.672
  5350           5.993           0.563           2.623           2.770          17.715          16.595          17.705
  5360           5.993           0.563           2.623           2.775          17.748          16.628          17.738
  5370           5.993           0.563           2.623           2.780          17.781          16.661          17.771
  5380           5.993           0.563           2.623           2.785          17.814          16.694          17.804
  5390           5.993           0.563           2.623           2.790          17.847          16.727          17.837
  5400           5.993           0.563           2.623           2.795          17.880          16.760          17.870
  5410           5.993           0.563           2.623           2.801          17.913          16.793          17.903
  5420           5.993           0.563           2.623           2.806          17.946          16.826          17.937
  5430           5.993           0.563           2.623           2.811          17.979          16.859          17.970
  5440           5.993           0.563           2.623           2.816          18.012          16.892          18.003
  5450           5.993           0.563           2.623           2.821          18.045          16.925          18.036
  5460           5.993           0.563           2.623           2.826          18.078          16.958          18.069
  5470           5.993           0.563           2.623           2.831          18.111          16.991          18.102
  5480           5.993           0.563           2.623           2.837          18.144          17.024          18.135
  5490           5.993           0.563           2.623           2.842          18.177          17.057          18.168
  5500           5.993           0.563           2.623           2.847          18.210          17.090          18.201
  5510           5.993           0.563           2.623           2.852          18.243          17.123          18.234
  5520           5.993           0.563           2.623           2.857          18.276          17.156          18.267
  5530           5.993           0.563           2.623           2.862          18.309          17.189          18.300
  5540           5.993           0.563           2.623           2.868          18.342          17.222          18.333
  5550           5.993           0.563           2.623           2.873          18.375          17.255          18.366
  5560           5.993           0.563           2.623           2.878          18.408          17.288          18.399
  5570           5.993           0.563           2.623           2.883          18.441          17.321          18.432
  5580           5.993           0.563           2.623           2.888          18.474          17.354          18.465
  5590           5.993           0.563           2.623           2.893          18.507          17.387          18.498
  5600           5.993           0.563           2.623           2.899          18.540          17.420          18.531
  5610           5.993           0.563           2.623           2.904          18.573          17.453          18.564
  5620           5.993           0.563           2.623           2.909          18.606          17.486          18.597
  5630           5.993           0.563           2.623           2.914          18.639          17.519          18.630
  5640           5.993           0.563           2.623           2.919          18.672          17.552          18.663
  5650           5.993           0.563           2.623           2.924          18.705          17.585          18.696
  5660           5.993           0.563           2.623           2.930          18.738          17.618          18.729
  5670           5.994           0.563           2.623           2.935          18.771          17.651          18.762
  5680           5.994           0.563           2.623           2.940          18.804          17.684          18.795
  5690           5.994           0.563           2.623           2.945          18.837          17.717          18.828
  5700           5.994           0.563           2.623           2.950          18.870          17.751          18.861
  5710           5.994           0.563           2.623           2.955          18.903          17.784          18.894
  5720           5.994           0.563           2.623           2.961          18.936          17.817          18.928
  5730           5.994           0.563           2.623           2.966          18.969          17.850          18.961
  5740           5.994           0.563           2.623           2.971          19.002          17.883          18.994
  5750           5.994           0.563           2.623           2.976          19.035          17.916          19.027
  5760           5.994           0.563           2.623           2.981          19.068          17.949          19.060
  5770           5.994           0.563           2.623           2.986          19.102          17.982          19.093
  5780           5.994           0.563           2.623           2.992          19.135          18.015          19.126
  5790           5.994           0.563           2.623           2.997          19.168          18.048          19.159
  5800           5.994           0.563           2.623           3.002          19.201          18.081          19.192
  5810           5.994           0.563           2.623           3.007          19.234          18.114          19.225
  5820           5.994           0.563           2.623           3.012          19.267          18.147          19.258
  5830           5.994           0.563           2.623           3.017          19.300          18.180          19.291
  5840           5.994           0.563           2.623           3.023          19.333          18.213          19.324
  5850           5.994           0.563           2.623           3.028          19.366          18.246          19.357
  5860           5.994           0.563           2.623           3.033          19.399          18.279          19.390
  5870           5.994           0.563           2.623           3.038          19.432          18.312          19.423
  5880           5.994           0.563           2.623           3.043          19.465          18.345          19.456
  5890           5.994           0.563           2.623           3.048          19.498          18.378          19.489
  5900           5.994           0.563           2.624           3.054          19.531          18.411          19.522
  5910           5.994           0.563           2.624           3.059          19.564          18.444          19.555
  5920           5.994           0.563           2.624           3.064          19.597          18.477          19.588
  5930           5.994           0.563           2.624           3.069          19.630          18.510          19.621
  5940           5.994           0.563           2.624           3.074          19.663          18.543          19.654
  5950           5.994           0.563           2.624           3.079          19.696          18.576          19.687
  5960           5.994           0.563           2.624           3.085          19.729          18.609          19.720
  5970           5.994           0.563           2.624           3.090          19.762          18.642          19.753
  5980           5.994           0.563           2.624           3.095          19.795          18.675          19.786
  5990           5.994           0.563           2.624           3.100          19.828          18.708          19.820
  6000           5.994           0.563           2.624           3.105          19.861          18.741          19.853
  6010           5.994           0.563           2.624           3.110          19.894          18.774          19.886
  6020           5.994           0.563           2.624           3.116          19.927          18.807          19.919
  6030           5.994           0.563           2.624           3.121          19.960          18.840          19.952
  6040           5.994           0.563           2.624           3.126          19.993          18.873          19.985
  6050           5.994           0.563           2.624           3.131          20.026          18.906          20.018
  6060           5.994           0.563           2.624           3.136          20.059          18.939          20.051
  6070           5.994           0.563           2.624           3.141          20.092          18.972          20.084
  6080           5.994           0.563           2.624           3.147          20.125          19.005          20.117
  6090           5.994           0.563           2.624           3.152          20.158          19.038          20.150
  6100           5.994           0.563           2.624           3.157          20.191          19.071          20.183
  6110           5.994           0.563           2.624           3.162          20.224          19.104          20.216
  6120           5.994           0.563           2.624           3.167          20.257          19.137          20.249
  6130           5.994           0.563           2.624           3.172          20.290          19.170          20.282
  6140           5.994           0.563           2.624           3.178          20.323          19.204          20.315
  6150           5.994           0.563           2.624           3.183          20.356          19.237          20.348
  6160           5.995           0.563           2.624           3.188          20.389          19.270          20.381
  6170           5.995           0.563           2.624           3.193          20.422          19.303          20.414
  6180           5.995           0.563           2.624           3.198          20.455          19.336          20.447
  6190           5.995           0.563           2.624           3.203          20.488          19.369          20.480
  6200           5.995           0.563           2.624           3.209          20.522          19.402          20.513
  6210           5.995           0.563           2.624           3.214          20.555          19.435          20.546
  6220           5.995           0.563           2.624           3.219          20.588          19.468          20.579
  6230           5.995           0.563           2.624           3.224          20.621          19.501          20.612
  6240           5.995           0.563           2.624           3.229          20.654          19.534          20.645
  6250           5.995           0.563           2.624           3.234          20.687          19.567          20.679
  6260           5.995           0.563           2.624           3.240          20.720          19.600          20.712
  6270           5.995           0.563           2.624           3.245          20.753          19.633          20.745
  6280           5.995           0.563           2.624           3.250          20.786          19.666          20.778
  6290           5.995           0.563           2.624           3.255          20.819          19.699          20.811
  6300           5.995           0.563           2.624           3.260          20.852          19.732          20.844
  6310           5.995           0.563           2.624           3.265          20.885          19.765          20.877
  6320           5.995           0.563           2.624           3.271          20.918          19.798          20.910
  6330           5.995           0.563           2.624           3.276          20.951          19.831          20.943
  6340           5.995           0.563           2.624           3.281          20.984          19.864          20.976
  6350           5.995           0.563           2.624           3.286          21.017          19.897          21.009
  6360           5.995           0.563           2.624           3.291          21.050          19.930          21.042
  6370           5.995           0.563           2.624           3.296          21.083          19.963          21.075
  6380           5.995           0.563           2.624           3.302          21.116          19.996          21.108
  6390           5.995           0.563           2.624           3.307          21.149          20.029          21.141
  6400           5.995           0.563           2.624           3.312          21.182          20.062          21.174
  6410           5.995           0.563           2.624           3.317          21.215          20.095          21.207
  6420           5.995           0.563           2.624           3.322          21.248          20.128          21.240
  6430           5.995           0.563           2.624           3.327          21.281          20.161          21.273
  6440           5.995           0.563           2.624           3.333          21.314          20.194          21.306
  6450           5.995           0.563           2.624           3.338          21.347          20.227          21.339
  6460           5.995           0.563           2.624           3.343          21.380          20.260          21.372
  6470           5.995           0.563           2.624           3.348          21.413          20.293          21.405
  6480           5.995           0.563           2.624           3.353          21.446          20.326          21.438
  6490           5.995           0.563           2.624           3.358          21.479          20.359          21.471
  6500           5.995           0.563           2.624           3.364          21.512          20.393          21.505
  6510           5.995           0.563           2.624           3.369          21.545          20.426          21.538
  6520           5.995           0.563           2.624           3.374          21.578          20.459          21.571
  6530           5.995           0.563           2.624           3.379          21.611          20.492          21.604
  6540           5.995           0.563           2.624           3.384          21.644          20.525          21.637
  6550           5.995           0.563           2.624           3.389          21.678          20.558          21.670
  6560           5.995           0.563           2.624           3.395          21.711          20.591          21.703
  6570           5.995           0.563           2.624           3.400          21.744          20.624          21.736
  6580           5.995           0.563           2.624           3.405          21.777          20.657          21.769
  6590           5.995           0.563           2.624           3.410          21.810          20.690          21.802
  6600           5.995           0.563           2.624           3.415          21.843          20.723          21.835
  6610           5.995           0.563           2.624           3.420          21.876          20.756          21.868
  6620           5.995           0.563           2.624           3.426          21.909          20.789          21.901
  6630           5.995           0.563           2.624           3.431          21.942          20.822          21.934
  6640           5.995           0.563           2.624           3.436          21.975          20.855          21.967
  6650           5.995           0.563           2.624           3.441          22.008          20.888          22.000
  6660           5.995           0.563           2.624           3.446          22.041          20.921          22.033
  6670           5.995           0.563           2.624           3.451          22.074          20.954          22.066
  6680           5.995           0.563           2.624           3.457          22.107          20.987          22.099
  6690           5.995           0.563           2.624           3.462          22.140          21.020          22.132
  6700           5.995           0.563           2.624           3.467          22.173          21.053          22.165
  6710           5.995           0.563           2.624           3.472          22.206          21.086          22.198
  6720           5.995           0.563           2.624           3.477          22.239          21.119          22.231
  6730           5.995           0.563           2.624           3.482          22.272          21.152          22.265
  6740           5.995           0.563           2.624           3.488          22.305          21.185          22.298
  6750           5.995           0.563           2.624           3.493          22.338          21.218          22.331
  6760           5.995           0.563           2.624           3.498          22.371          21.251          22.364
  6770           5.995           0.563           2.624           3.503          22.404          21.284          22.397
  6780           5.995           0.563           2.624           3.508          22.437          21.317          22.430
  6790           5.995           0.563           2.624           3.513          22.470          21.350          22.463
  6800           5.995           0.563           2.624           3.519          22.503          21.383          22.496
  6810           5.996           0.563           2.624           3.524          22.536          21.416          22.529
  6820           5.996           0.563           2.624           3.529          22.569          21.450          22.562
  6830           5.996           0.563           2.624           3.534          22.602          21.483          22.595
  6840           5.996           0.563           2.624           3.539          22.635          21.516          22.628
  6850           5.996           0.563           2.624           3.544          22.668          21.549          22.661
  6860           5.996           0.563           2.624           3.550          22.701          21.582          22.694
  6870           5.996           0.563           2.624           3.555          22.735          21.615          22.727
  6880           5.996           0.563           2.624           3.560          22.768          21.648          22.760
  6890           5.996           0.563           2.624           3.565          22.801          21.681          22.793
  6900           5.996           0.563           2.624           3.570          22.834          21.714          22.826
  6910           5.996           0.563           2.624           3.575          22.867          21.747          22.859
  6920           5.996           0.563           2.624           3.581          22.900          21.780          22.892
  6930           5.996           0.563           2.624           3.586          22.933          21.813          22.925
  6940           5.996           0.563           2.624           3.591          22.966          21.846          22.958
  6950           5.996           0.563           2.624           3.596          22.999          21.879          22.991
  6960           5.996           0.563           2.624           3.601          23.032          21.912          23.025
  6970           5.996           0.563           2.624           3.606          23.065          21.945          23.058
  6980           5.996           0.563           2.624           3.612          23.098          21.978          23.091
  6990           5.996           0.563           2.624           3.617          23.131          22.011          23.124
  7000           5.996           0.563           2.624           3.622          23.164          22.044          23.157
  7010           5.996           0.563           2.624           3.627          23.197          22.077          23.190
  7020           5.996           0.563           2.624           3.632          23.230          22.110          23.223
  7030           5.996           0.563           2.624           3.637          23.263          22.143          23.256
  7040           5.996           0.563           2.624           3.643          23.296          22.176          23.289
  7050           5.996           0.563           2.624           3.648          23.329          22.209          23.322
  7060           5.996           0.563           2.624           3.653          23.362          22.242          23.355
  7070           5.996           0.563           2.624           3.658          23.395          22.275          23.388
  7080           5.996           0.563           2.624           3.663          23.428          22.308          23.421
  7090           5.996           0.563           2.624           3.668          23.461          22.341          23.454
  7100           5.996           0.563           2.624           3.674          23.494          22.374          23.487
  7110           5.996           0.563           2.624           3.679          23.527          22.407          23.520
  7120           5.996           0.563           2.625           3.684          23.560          22.441          23.553
  7130           5.996           0.563           2.625           3.689          23.593          22.474          23.586
  7140           5.996           0.563           2.625           3.694          23.626          22.507          23.619
  7150           5.996           0.563           2.625           3.699          23.659          22.540          23.652
  7160           5.996           0.563           2.625           3.705          23.693          22.573          23.685
  7170           5.996           0.563           2.625           3.710          23.726          22.606          23.718
  7180           5.996           0.563           2.625           3.715          23.759          22.639          23.752
  7190           5.996           0.563           2.625           3.720          23.792          22.672          23.785
  7200           5.996           0.563           2.625           3.725          23.825          22.705          23.818
  7210           5.996           0.563           2.625           3.730          23.858          22.738          23.851
  7220           5.996           0.563           2.625           3.736          23.891          22.771          23.884
  7230           5.996           0.563           2.625           3.741          23.924          22.804          23.917
  7240           5.996           0.563           2.625           3.746          23.957          22.837          23.950
  7250           5.996           0.563           2.625           3.751          23.990          22.870          23.983
  7260           5.996           0.563           2.625           3.756          24.023          22.903          24.016
  7270           5.996           0.563           2.625           3.761          24.056          22.936          24.049
  7280           5.996           0.563           2.625           3.767          24.089          22.969          24.082
  7290           5.996           0.563           2.625           3.772          24.122          23.002          24.115
  7300           5.996           0.563           2.625           3.777          24.155          23.035          24.148
  7310           5.996           0.563           2.625           3.782          24.188          23.068          24.181
  7320           5.996           0.563           2.625           3.787          24.221          23.101          24.214
  7330           5.996           0.563           2.625           3.792          24.254          23.134          24.247
  7340           5.996           0.563           2.625           3.798          24.287          23.167          24.280
  7350           5.996           0.563           2.625           3.803          24.320          23.200          24.313
  7360           5.996           0.563           2.625           3.808          24.353          23.233          24.346
  7370           5.996           0.563           2.625           3.813          24.386          23.266          24.379
  7380           5.996           0.563           2.625           3.818          24.419          23.299          24.412
  7390           5.996           0.563           2.625           3.823          24.452          23.333          24.445
  7400           5.996           0.563           2.625           3.829          24.485          23.366          24.479
  7410           5.996           0.563           2.625           3.834          24.518          23.399          24.512
  7420           5.996           0.563           2.625           3.839          24.551          23.432          24.545
  7430           5.996           0.563           2.625           3.844          24.584          23.465          24.578
  7440           5.996           0.563           2.625           3.849          24.618          23.498          24.611
  7450           5.996           0.563           2.625           3.854          24.651          23.531          24.644
  7460           5.996           0.563           2.625           3.860          24.684          23.564          24.677
  7470           5.996           0.563           2.625           3.865          24.717          23.597          24.710
  7480           5.996           0.563           2.625           3.870          24.750          23.630          24.743
  7490           5.996           0.563           2.625           3.875          24.783          23.663          24.776
  7500           5.996           0.563           2.625           3.880          24.816          23.696          24.809
  7510           5.996           0.563           2.625           3.885          24.849          23.729          24.842
  7520           5.996           0.563           2.625           3.891          24.882          23.762          24.875
  7530           5.996           0.563           2.625           3.896          24.915          23.795          24.908
  7540           5.996           0.563           2.625           3.901          24.948          23.828          24.941
  7550           5.996           0.563           2.625           3.906          24.981          23.861          24.974
  7560           5.996           0.563           2.625           3.911          25.014          23.894          25.007
  7570           5.996           0.563           2.625           3.916          25.047          23.927          25.040
  7580           5.996           0.563           2.625           3.922          25.080          23.960          25.073
  7590           5.996           0.563           2.625           3.927          25.113          23.993          25.106
  7600           5.996           0.563           2.625           3.932          25.146          24.026          25.139
  7610           5.996           0.563           2.625           3.937          25.179          24.059          25.172
  7620           5.996           0.563           2.625           3.942          25.212          24.092          25.206
  7630           5.996           0.563           2.625           3.947          25.245          24.125          25.239
  7640           5.996           0.563           2.625           3.953          25.278          24.158          25.272
  7650           5.996           0.563           2.625           3.958          25.311          24.191          25.305
  7660           5.996           0.563           2.625           3.963          25.344          24.225          25.338
  7670           5.996           0.563           2.625           3.968          25.377          24.258          25.371
  7680           5.996           0.563           2.625           3.973          25.410          24.291          25.404
  7690           5.996           0.563           2.625           3.978          25.443          24.324          25.437
  7700           5.996           0.563           2.625           3.984          25.477          24.357          25.470
  7710           5.996           0.563           2.625           3.989          25.510          24.390          25.503
  7720           5.997           0.563           2.625           3.994          25.543          24.423          25.536
  7730           5.997           0.563           2.625           3.999          25.576          24.456          25.569
  7740           5.997           0.563           2.625           4.004          25.609          24.489          25.602
  7750           5.997           0.563           2.625           4.009          25.642          24.522          25.635
  7760           5.997           0.563           2.625           4.015          25.675          24.555          25.668
  7770           5.997           0.563           2.625           4.020          25.708          24.588          25.701
  7780           5.997           0.563           2.625           4.025          25.741          24.621          25.734
  7790           5.997           0.563           2.625           4.030          25.774          24.654          25.767
  7800           5.997           0.563           2.625           4.035          25.807          24.687          25.800
  7810           5.997           0.563           2.625           4.040          25.840          24.720          25.833
  7820           5.997           0.563           2.625           4.046          25.873          24.753          25.867
  7830           5.997           0.563           2.625           4.051          25.906          24.786          25.900
  7840           5.997           0.563           2.625           4.056          25.939          24.819          25.933
  7850           5.997           0.563           2.625           4.061          25.972          24.852          25.966
  7860           5.997           0.563           2.625           4.066          26.005          24.885          25.999
  7870           5.997           0.563           2.625           4.071          26.038          24.918          26.032
  7880           5.997           0.563           2.625           4.077          26.071          24.951          26.065
  7890           5.997           0.563           2.625           4.082          26.104          24.984          26.098
  7900           5.997           0.563           2.625           4.087          26.137          25.017          26.131
  7910           5.997           0.563           2.625           4.092          26.170          25.051          26.164
  7920           5.997           0.563           2.625           4.097          26.203          25.084          26.197
  7930           5.997           0.563           2.625           4.102          26.236          25.117          26.230
  7940           5.997           0.563           2.625           4.108          26.269          25.150          26.263
  7950           5.997           0.563           2.625           4.113          26.303          25.183          26.296
  7960           5.997           0.563           2.625           4.118          26.336          25.216          26.329
  7970           5.997           0.563           2.625           4.123          26.369          25.249          26.362
  7980           5.997           0.563           2.625           4.128          26.402          25.282          26.395
  7990           5.997           0.563           2.625           4.133          26.435          25.315          26.428
  8000           5.997           0.563           2.625           4.139          26.468          25.348          26.461
  8010           5.997           0.563           2.625           4.144          26.501          25.381          26.494
  8020           5.997           0.563           2.625           4.149          26.534          25.414          26.527
  8030           5.997           0.563           2.625           4.154          26.567          25.447          26.561
  8040           5.997           0.563           2.625           4.159          26.600          25.480          26.594
  8050           5.997           0.563           2.625           4.164          26.633          25.513          26.627
  8060           5.997           0.563           2.625           4.170          26.666          25.546          26.660
  8070           5.997           0.563           2.625           4.175          26.699          25.579          26.693
  8080           5.997           0.563           2.625           4.180          26.732          25.612          26.726
  8090           5.997           0.563           2.625           4.185          26.765          25.645          26.759
  8100           5.997           0.563           2.625           4.190          26.798          25.678          26.792
  8110           5.997           0.563           2.625           4.195          26.831          25.711          26.825
  8120           5.997           0.563           2.625           4.201          26.864          25.744          26.858
  8130           5.997           0.563           2.625           4.206          26.897          25.777          26.891
  8140           5.997           0.563           2.625           4.211          26.930          25.810          26.924
  8150           5.997           0.563           2.625           4.216          26.963          25.844          26.957
  8160           5.997           0.563           2.625           4.221          26.996          25.877          26.990
  8170           5.997           0.563           2.625           4.226          27.029          25.910          27.023
  8180           5.997           0.563           2.625           4.232          27.062          25.943          27.056
  8190           5.997           0.563           2.625           4.237          27.096          25.976          27.089
  8200           5.997           0.563           2.625           4.242          27.129          26.009          27.122
  8210           5.997           0.563           2.625           4.247          27.162          26.042          27.155
  8220           5.997           0.563           2.625           4.252          27.195          26.075          27.188
  8230           5.997           0.563           2.625           4.257          27.228          26.108          27.222
  8240           5.997           0.563           2.625           4.263          27.261          26.141          27.255
  8250           5.997           0.563           2.625           4.268          27.294          26.174          27.288
  8260           5.997           0.563           2.625           4.273          27.327          26.207          27.321
  8270           5.997           0.563           2.625           4.278          27.360          26.240          27.354
  8280           5.997           0.563           2.625           4.283          27.393          26.273          27.387
  8290           5.997           0.563           2.625           4.288          27.426          26.306          27.420
  8300           5.997           0.563           2.625           4.294          27.459          26.339          27.453
  8310           5.997           0.563           2.625           4.299          27.492          26.372          27.486
  8320           5.997           0.563           2.625           4.304          27.525          26.405          27.519
  8330           5.997           0.563           2.625           4.309          27.558          26.438          27.552
  8340           5.997           0.563           2.625           4.314          27.591          26.471          27.585
  8350           5.997           0.563           2.625           4.319          27.624          26.504          27.618
  8360           5.997           0.563           2.625           4.325          27.657          26.537          27.651
  8370           5.997           0.563           2.625           4.330          27.690          26.570          27.684
  8380           5.997           0.563           2.625           4.335          27.723          26.603          27.717
  8390           5.997           0.563           2.625           4.340          27.756          26.637          27.750
  8400           5.997           0.563           2.625           4.345          27.789          26.670          27.783
  8410           5.997           0.563           2.625           4.350          27.822          26.703          27.816
  8420           5.997           0.563           2.625           4.356          27.855          26.736          27.849
  8430           5.997           0.563           2.625           4.361          27.889          26.769          27.883
  8440           5.997           0.563           2.625           4.366          27.922          26.802          27.916
  8450           5.997           0.563           2.625           4.371          27.955          26.835          27.949
  8460           5.997           0.563           2.625           4.376          27.988          26.868          27.982
  8470           5.997           0.563           2.625           4.381          28.021          26.901          28.015
  8480           5.997           0.563           2.625           4.387          28.054          26.934          28.048
  8490           5.997           0.563           2.625           4.392          28.087          26.967          28.081
  8500           5.997           0.563           2.625           4.397          28.120          27.000          28.114
  8510           5.997           0.563           2.625           4.402          28.153          27.033          28.147
  8520           5.997           0.563           2.625           4.407          28.186          27.066          28.180
  8530           5.997           0.563           2.625           4.412          28.219          27.099          28.213
  8540           5.997           0.563           2.625           4.418          28.252          27.132          28.246
  8550           5.997           0.563           2.625           4.423          28.285          27.165          28.279
  8560           5.997           0.563           2.625           4.428          28.318          27.198          28.312
  8570           5.997           0.563           2.625           4.433          28.351          27.231          28.345
  8580           5.997           0.563           2.625           4.438          28.384          27.264          28.378
  8590           5.997           0.563           2.625           4.443          28.417          27.297          28.411
  8600           5.997           0.563           2.625           4.449          28.450          27.330          28.444
  8610           5.997           0.563           2.625           4.454          28.483          27.363          28.477
  8620           5.997           0.563           2.625           4.459          28.516          27.397          28.510
  8630           5.997           0.563           2.625           4.464          28.549          27.430          28.544
  8640           5.997           0.563           2.625           4.469          28.582          27.463          28.577
  8650           5.997           0.563           2.625           4.474          28.615          27.496          28.610
  8660           5.997           0.563           2.625           4.480          28.649          27.529          28.643
  8670           5.997           0.563           2.625           4.485          28.682          27.562          28.676
  8680           5.997           0.563           2.625           4.490          28.715          27.595          28.709
  8690           5.997           0.563           2.625           4.495          28.748          27.628          28.742
  8700           5.997           0.563           2.625           4.500          28.781          27.661          28.775
  8710           5.997           0.563           2.625           4.505          28.814          27.694          28.808
  8720           5.997           0.563           2.625           4.511          28.847          27.727          28.841
  8730           5.997           0.563           2.625           4.516          28.880          27.760          28.874
  8740           5.997           0.563           2.625           4.521          28.913          27.793          28.907
  8750           5.997           0.563           2.625           4.526          28.946          27.826          28.940
  8760           5.997           0.563           2.625           4.531          28.979          27.859          28.973
  8770           5.997           0.563           2.625           4.536          29.012          27.892          29.006
  8780           5.997           0.563           2.625           4.542          29.045          27.925          29.039
  8790           5.997           0.563           2.625           4.547          29.078          27.958          29.072
  8800           5.997           0.563           2.625           4.552          29.111          27.991          29.105
  8810           5.997           0.563           2.625           4.557          29.144          28.024          29.138
  8820           5.997           0.563           2.625           4.562          29.177          28.057          29.171
  8830           5.997           0.563           2.625           4.568          29.210          28.090          29.205
  8840           5.997           0.563           2.625           4.573          29.243          28.123          29.238
  8850           5.997           0.563           2.625           4.578          29.276          28.157          29.271
  8860           5.997           0.563           2.625           4.583          29.309          28.190          29.304
  8870           5.997           0.563           2.625           4.588          29.342          28.223          29.337
  8880           5.997           0.563           2.625           4.593          29.376          28.256          29.370
  8890           5.997           0.563           2.625           4.599          29.409          28.289          29.403
  8900           5.997           0.563           2.625           4.604          29.442          28.322          29.436
  8910           5.997           0.563           2.625           4.609          29.475          28.355          29.469
  8920           5.997           0.563           2.625           4.614          29.508          28.388          29.502
  8930           5.997           0.563           2.625           4.619          29.541          28.421          29.535
  8940           5.997           0.563           2.625           4.624          29.574          28.454          29.568
  8950           5.997           0.563           2.625           4.630          29.607          28.487          29.601
  8960           5.997           0.563           2.625           4.635          29.640          28.520          29.634
  8970           5.997           0.563           2.625           4.640          29.673          28.553          29.667
  8980           5.997           0.563           2.625           4.645          29.706          28.586          29.700
  8990           5.997           0.563           2.625           4.650          29.739          28.619          29.733
  9000           5.997           0.563           2.625           4.655          29.772          28.652          29.766
  9010           5.997           0.563           2.625           4.661          29.805          28.685          29.799
  9020           5.997           0.563           2.625           4.666          29.838          28.718          29.833
  9030           5.997           0.563           2.625           4.671          29.871          28.751          29.866
  9040           5.997           0.563           2.625           4.676          29.904          28.784          29.899
  9050           5.997           0.563           2.625           4.681          29.937          28.817          29.932
  9060           5.997           0.563           2.625           4.686          29.970          28.850          29.965
  9070           5.997           0.563           2.625           4.692          30.003          28.884          29.998
  9080           5.997           0.563           2.625           4.697          30.036          28.917          30.031
  9090           5.997           0.563           2.625           4.702          30.069          28.950          30.064
  9100           5.997           0.563           2.625           4.707          30.103          28.983          30.097
  9110           5.997           0.563           2.625           4.712          30.136          29.016          30.130
  9120           5.997           0.563           2.625           4.717          30.169          29.049          30.163
  9130           5.998           0.563           2.625           4.723          30.202          29.082          30.196
  9140           5.998           0.563           2.625           4.728          30.235          29.115          30.229
  9150           5.998           0.563           2.625           4.733          30.268          29.148          30.262
  9160           5.998           0.563           2.625           4.738          30.301          29.181          30.295
  9170           5.998           0.563           2.625           4.743          30.334          29.214          30.328
  9180           5.998           0.563           2.625           4.748          30.367          29.247          30.361
  9190           5.998           0.563           2.625           4.754          30.400          29.280          30.394
  9200           5.998           0.563           2.625           4.759          30.433          29.313          30.427
  9210           5.998           0.563           2.625           4.764          30.466          29.346          30.460
  9220           5.998           0.563           2.625           4.769          30.499          29.379          30.494
  9230           5.998           0.563           2.625           4.774          30.532          29.412          30.527
  9240           5.998           0.563           2.625           4.779          30.565          29.445          30.560
  9250           5.998           0.563           2.625           4.785          30.598          29.478          30.593
  9260           5.998           0.563           2.625           4.790          30.631          29.511          30.626
  9270           5.998           0.563           2.625           4.795          30.664          29.544          30.659
  9280           5.998           0.563           2.625           4.800          30.697          29.578          30.692
  9290           5.998           0.563           2.625           4.805          30.730          29.611          30.725
  9300           5.998           0.563           2.625           4.810          30.763          29.644          30.758
  9310           5.998           0.563           2.625           4.816          30.796          29.677          30.791
  9320           5.998           0.563           2.625           4.821          30.830          29.710          30.824
  9330           5.998           0.563           2.625           4.826          30.863          29.743          30.857
  9340           5.998           0.563           2.625           4.831          30.896          29.776          30.890
  9350           5.998           0.563           2.625           4.836          30.929          29.809          30.923
  9360           5.998           0.563           2.625           4.841          30.962          29.842          30.956
  9370           5.998           0.563           2.625           4.847          30.995          29.875          30.989
  9380           5.998           0.563           2.625           4.852          31.028          29.908          31.022
  9390           5.998           0.563           2.625           4.857          31.061          29.941          31.055
  9400           5.998           0.563           2.625           4.862          31.094          29.974          31.088
  9410           5.998           0.563           2.625           4.867          31.127          30.007          31.122
  9420           5.998           0.563           2.625           4.872          31.160          30.040          31.155
  9430           5.998           0.563           2.625           4.878          31.193          30.073          31.188
  9440           5.998           0.563           2.625           4.883          31.226          30.106          31.221
  9450           5.998           0.563           2.625           4.888          31.259          30.139          31.254
  9460           5.998           0.563           2.625           4.893          31.292          30.172          31.287
  9470           5.998           0.563           2.625           4.898          31.325          30.205          31.320
  9480           5.998           0.563           2.625           4.903          31.358          30.238          31.353
  9490           5.998           0.563           2.625           4.909          31.391          30.271          31.386
  9500           5.998           0.563           2.625           4.914          31.424          30.305          31.419
  9510           5.998           0.563           2.625           4.919          31.457          30.338          31.452
  9520           5.998           0.563           2.625           4.924          31.490          30.371          31.485
  9530           5.998           0.563           2.625           4.929          31.524          30.404          31.518
  9540           5.998           0.563           2.625           4.934          31.557          30.437          31.551
  9550           5.998           0.563           2.625           4.940          31.590          30.470          31.584
  9560           5.998           0.563           2.625           4.945          31.623          30.503          31.617
  9570           5.998           0.563           2.625           4.950          31.656          30.536          31.650
  9580           5.998           0.563           2.625           4.955          31.689          30.569          31.683
  9590           5.998           0.563           2.625           4.960          31.722          30.602          31.716
  9600           5.998           0.563           2.625           4.965          31.755          30.635          31.750
  9610           5.998           0.563           2.626           4.971          31.788          30.668          31.783
  9620           5.998           0.563           2.626           4.976          31.821          30.701          31.816
  9630           5.998           0.563           2.626           4.981          31.854          30.734          31.849
  9640           5.998           0.563           2.626           4.986          31.887          30.767          31.882
  9650           5.998           0.563           2.626           4.991          31.920          30.800          31.915
  9660           5.998           0.563           2.626           4.996          31.953          30.833          31.948
  9670           5.998           0.563           2.626           5.002          31.986          30.866          31.981
  9680           5.998           0.563           2.626           5.007          32.019          30.899          32.014
  9690           5.998           0.563           2.626           5.012          32.052          30.932          32.047
  9700           5.998           0.563           2.626           5.017          32.085          30.965          32.080
  9710           5.998           0.563           2.626           5.022          32.118          30.999          32.113
  9720           5.998           0.563           2.626           5.027          32.151          31.032          32.146
  9730           5.998           0.563           2.626           5.033          32.184          31.065          32.179
  9740           5.998           0.563           2.626           5.038          32.218          31.098          32.212
  9750           5.998           0.563           2.626           5.043          32.251          31.131          32.245
  9760           5.998           0.563           2.626           5.048          32.284          31.164          32.278
  9770           5.998           0.563           2.626           5.053          32.317          31.197          32.311
  9780           5.998           0.563           2.626           5.058          32.350          31.230          32.345
  9790           5.998           0.563           2.626           5.064          32.383          31.263          32.378
  9800           5.998           0.563           2.626           5.069          32.416          31.296          32.411
  9810           5.998           0.563           2.626           5.074          32.449          31.329          32.444
  9820           5.998           0.563           2.626           5.079          32.482          31.362          32.477
  9830           5.998           0.563           2.626           5.084          32.515          31.395          32.510
  9840           5.998           0.563           2.626           5.090          32.548          31.428          32.543
  9850           5.998           0.563           2.626           5.095          32.581          31.461          32.576
  9860           5.998           0.563           2.626           5.100          32.614          31.494          32.609
  9870           5.998           0.563           2.626           5.105          32.647          31.527          32.642
  9880           5.998           0.563           2.626           5.110          32.680          31.560          32.675
  9890           5.998           0.563           2.626           5.115          32.713          31.593          32.708
  9900           5.998           0.563           2.626           5.121          32.746          31.626          32.741
  9910           5.998           0.563           2.626           5.126          32.779          31.659          32.774
  9920           5.998           0.563           2.626           5.131          32.812          31.693          32.807
  9930           5.998           0.563           2.626           5.136          32.845          31.726          32.840
  9940           5.998           0.563           2.626           5.141          32.878          31.759          32.873
  9950           5.998           0.563           2.626           5.146          32.912          31.792          32.906
  9960           5.998           0.563           2.626           5.152          32.945          31.825          32.939
  9970           5.998           0.563           2.626           5.157          32.978          31.858          32.973
  9980           5.998           0.563           2.626           5.162          33.011          31.889          33.006
  9990           5.998           0.563           2.626           5.167          33.044          31.928          33.039
 10000           5.998           0.563           2.626           5.172          33.077          31.940          33.072
