#   T(K)    C_v(k_B/fu)        Gamma     alpha_v*10^6(K^-1)   E_th(eV)                       P_th(GPa)
#                                                                         ----------------------------------------------
#                                                                          {sum G_i.U_iV}  {int G.C_v/V dT}    {G.U/V}
# ----------------------------------------------------------------------------------------------------------------------
    10           0.000           1.795           0.000           0.268           4.081           0.000           7.480
    20           0.001           1.794           0.001           0.268           4.081           0.000           7.479
    30           0.006           1.793           0.015           0.268           4.081           0.000           7.471
    40           0.018           1.781           0.045           0.268           4.082           0.001           7.425
    50           0.034           1.746           0.083           0.268           4.082           0.001           7.278
    60           0.054           1.678           0.126           0.268           4.083           0.003           6.996
    70           0.079           1.584           0.176           0.268           4.085           0.004           6.605
    80           0.113           1.480           0.234           0.268           4.087           0.007           6.175
    90           0.157           1.382           0.304           0.268           4.089           0.009           5.767
   100           0.212           1.297           0.386           0.268           4.093           0.013           5.416
   110           0.280           1.228           0.481           0.269           4.097           0.018           5.130
   120           0.359           1.172           0.589           0.269           4.102           0.023           4.903
   130           0.449           1.128           0.709           0.269           4.108           0.030           4.726
   140           0.549           1.094           0.841           0.270           4.115           0.038           4.590
   150           0.658           1.067           0.983           0.270           4.124           0.048           4.485
   160           0.774           1.046           1.134           0.271           4.134           0.058           4.406
   170           0.897           1.029           1.292           0.271           4.146           0.071           4.346
   180           1.023           1.015           1.455           0.272           4.159           0.085           4.302
   190           1.153           1.005           1.623           0.273           4.174           0.100           4.271
   200           1.286           0.996           1.793           0.274           4.190           0.117           4.251
   210           1.419           0.989           1.966           0.275           4.208           0.136           4.240
   220           1.552           0.984           2.138           0.277           4.228           0.157           4.235
   230           1.685           0.979           2.311           0.278           4.249           0.179           4.237
   240           1.817           0.976           2.482           0.280           4.272           0.203           4.245
   250           1.947           0.973           2.652           0.281           4.297           0.228           4.257
   260           2.075           0.970           2.819           0.283           4.323           0.255           4.273
   270           2.200           0.969           2.983           0.285           4.351           0.284           4.292
   280           2.322           0.967           3.144           0.287           4.380           0.314           4.315
   290           2.441           0.966           3.301           0.289           4.411           0.345           4.341
   300           2.556           0.965           3.454           0.291           4.443           0.378           4.369
   310           2.668           0.964           3.603           0.293           4.477           0.413           4.399
   320           2.777           0.964           3.747           0.296           4.512           0.449           4.432
   330           2.882           0.963           3.888           0.298           4.549           0.486           4.466
   340           2.984           0.963           4.023           0.301           4.587           0.525           4.503
   350           3.082           0.963           4.154           0.303           4.626           0.564           4.541
   360           3.176           0.963           4.281           0.306           4.666           0.605           4.581
   370           3.267           0.962           4.404           0.309           4.708           0.647           4.622
   380           3.355           0.962           4.522           0.311           4.750           0.691           4.665
   390           3.439           0.962           4.636           0.314           4.794           0.735           4.708
   400           3.521           0.963           4.745           0.317           4.839           0.781           4.754
   410           3.599           0.963           4.851           0.320           4.885           0.827           4.800
   420           3.674           0.963           4.953           0.324           4.932           0.874           4.847
   430           3.746           0.963           5.050           0.327           4.980           0.923           4.896
   440           3.815           0.963           5.145           0.330           5.029           0.972           4.945
   450           3.882           0.963           5.235           0.333           5.079           1.022           4.996
   460           3.946           0.963           5.323           0.337           5.129           1.073           5.047
   470           4.008           0.963           5.407           0.340           5.180           1.125           5.099
   480           4.067           0.964           5.487           0.344           5.233           1.178           5.152
   490           4.124           0.964           5.565           0.347           5.286           1.231           5.206
   500           4.178           0.964           5.640           0.351           5.339           1.285           5.261
   510           4.231           0.964           5.712           0.354           5.393           1.339           5.316
   520           4.282           0.964           5.781           0.358           5.449           1.395           5.372
   530           4.330           0.964           5.847           0.362           5.504           1.451           5.428
   540           4.377           0.965           5.912           0.366           5.560           1.507           5.486
   550           4.422           0.965           5.973           0.369           5.617           1.565           5.543
   560           4.465           0.965           6.033           0.373           5.675           1.622           5.602
   570           4.507           0.965           6.090           0.377           5.733           1.681           5.661
   580           4.547           0.965           6.145           0.381           5.792           1.740           5.720
   590           4.586           0.965           6.198           0.385           5.851           1.799           5.780
   600           4.623           0.965           6.249           0.389           5.910           1.859           5.841
   610           4.659           0.966           6.299           0.393           5.970           1.919           5.902
   620           4.693           0.966           6.346           0.397           6.031           1.980           5.963
   630           4.726           0.966           6.392           0.401           6.092           2.041           6.025
   640           4.758           0.966           6.437           0.405           6.153           2.103           6.087
   650           4.789           0.966           6.479           0.409           6.215           2.165           6.150
   660           4.819           0.966           6.520           0.413           6.277           2.227           6.213
   670           4.848           0.966           6.560           0.417           6.340           2.290           6.276
   680           4.876           0.966           6.599           0.422           6.403           2.353           6.340
   690           4.903           0.967           6.636           0.426           6.466           2.417           6.404
   700           4.929           0.967           6.672           0.430           6.530           2.481           6.468
   710           4.954           0.967           6.706           0.434           6.594           2.545           6.533
   720           4.978           0.967           6.740           0.439           6.658           2.609           6.598
   730           5.001           0.967           6.772           0.443           6.723           2.674           6.664
   740           5.024           0.967           6.804           0.447           6.788           2.739           6.729
   750           5.046           0.967           6.834           0.452           6.853           2.805           6.795
   760           5.067           0.967           6.863           0.456           6.919           2.870           6.861
   770           5.088           0.967           6.892           0.460           6.985           2.936           6.928
   780           5.107           0.967           6.919           0.465           7.051           3.003           6.995
   790           5.127           0.968           6.946           0.469           7.117           3.069           7.062
   800           5.145           0.968           6.972           0.473           7.184           3.136           7.129
   810           5.163           0.968           6.997           0.478           7.251           3.203           7.196
   820           5.181           0.968           7.021           0.482           7.318           3.270           7.264
   830           5.198           0.968           7.044           0.487           7.385           3.338           7.332
   840           5.214           0.968           7.067           0.491           7.453           3.405           7.400
   850           5.230           0.968           7.089           0.496           7.521           3.473           7.468
   860           5.245           0.968           7.111           0.500           7.589           3.541           7.537
   870           5.260           0.968           7.131           0.505           7.657           3.610           7.606
   880           5.275           0.968           7.152           0.509           7.725           3.678           7.675
   890           5.289           0.968           7.171           0.514           7.794           3.747           7.744
   900           5.303           0.968           7.190           0.519           7.863           3.816           7.813
   910           5.316           0.968           7.209           0.523           7.931           3.885           7.882
   920           5.329           0.968           7.227           0.528           8.001           3.954           7.952
   930           5.342           0.968           7.244           0.532           8.070           4.023           8.022
   940           5.354           0.969           7.261           0.537           8.139           4.093           8.092
   950           5.366           0.969           7.278           0.542           8.209           4.162           8.162
   960           5.377           0.969           7.294           0.546           8.279           4.232           8.232
   970           5.388           0.969           7.309           0.551           8.349           4.302           8.302
   980           5.399           0.969           7.325           0.555           8.419           4.372           8.373
   990           5.410           0.969           7.339           0.560           8.489           4.443           8.443
  1000           5.420           0.969           7.354           0.565           8.559           4.513           8.514
  1010           5.430           0.969           7.368           0.569           8.630           4.584           8.585
  1020           5.440           0.969           7.381           0.574           8.700           4.654           8.656
  1030           5.450           0.969           7.395           0.579           8.771           4.725           8.727
  1040           5.459           0.969           7.408           0.584           8.842           4.796           8.799
  1050           5.468           0.969           7.420           0.588           8.913           4.867           8.870
  1060           5.477           0.969           7.433           0.593           8.984           4.938           8.941
  1070           5.485           0.969           7.445           0.598           9.055           5.010           9.013
  1080           5.494           0.969           7.456           0.602           9.127           5.081           9.085
  1090           5.502           0.969           7.468           0.607           9.198           5.152           9.157
  1100           5.510           0.969           7.479           0.612           9.270           5.224           9.228
  1110           5.518           0.969           7.490           0.617           9.341           5.296           9.300
  1120           5.525           0.969           7.500           0.621           9.413           5.368           9.373
  1130           5.533           0.969           7.510           0.626           9.485           5.439           9.445
  1140           5.540           0.969           7.520           0.631           9.557           5.511           9.517
  1150           5.547           0.969           7.530           0.636           9.629           5.584           9.589
  1160           5.554           0.969           7.540           0.640           9.701           5.656           9.662
  1170           5.561           0.970           7.549           0.645           9.773           5.728           9.734
  1180           5.567           0.970           7.558           0.650           9.846           5.800           9.807
  1190           5.574           0.970           7.567           0.655           9.918           5.873           9.880
  1200           5.580           0.970           7.576           0.660           9.991           5.945           9.953
  1210           5.586           0.970           7.585           0.664          10.063           6.018          10.026
  1220           5.592           0.970           7.593           0.669          10.136           6.091          10.098
  1230           5.598           0.970           7.601           0.674          10.209           6.164          10.172
  1240           5.603           0.970           7.609           0.679          10.281           6.236          10.245
  1250           5.609           0.970           7.617           0.684          10.354           6.309          10.318
  1260           5.614           0.970           7.624           0.689          10.427           6.382          10.391
  1270           5.620           0.970           7.632           0.693          10.500           6.455          10.464
  1280           5.625           0.970           7.639           0.698          10.573           6.529          10.538
  1290           5.630           0.970           7.646           0.703          10.647           6.602          10.611
  1300           5.635           0.970           7.653           0.708          10.720           6.675          10.685
  1310           5.640           0.970           7.660           0.713          10.793           6.748          10.758
  1320           5.645           0.970           7.667           0.718          10.867           6.822          10.832
  1330           5.650           0.970           7.673           0.723          10.940           6.895          10.906
  1340           5.654           0.970           7.680           0.727          11.013           6.969          10.979
  1350           5.659           0.970           7.686           0.732          11.087           7.042          11.053
  1360           5.663           0.970           7.692           0.737          11.161           7.116          11.127
  1370           5.667           0.970           7.698           0.742          11.234           7.190          11.201
  1380           5.672           0.970           7.704           0.747          11.308           7.264          11.275
  1390           5.676           0.970           7.710           0.752          11.382           7.337          11.349
  1400           5.680           0.970           7.716           0.757          11.456           7.411          11.423
  1410           5.684           0.970           7.721           0.762          11.530           7.485          11.497
  1420           5.688           0.970           7.727           0.767          11.604           7.559          11.571
  1430           5.691           0.970           7.732           0.771          11.678           7.633          11.646
  1440           5.695           0.970           7.737           0.776          11.752           7.707          11.720
  1450           5.699           0.970           7.742           0.781          11.826           7.781          11.794
  1460           5.702           0.970           7.747           0.786          11.900           7.856          11.869
  1470           5.706           0.970           7.752           0.791          11.974           7.930          11.943
  1480           5.709           0.970           7.757           0.796          12.048           8.004          12.017
  1490           5.713           0.970           7.762           0.801          12.123           8.078          12.092
  1500           5.716           0.970           7.766           0.806          12.197           8.153          12.166
  1510           5.719           0.970           7.771           0.811          12.271           8.227          12.241
  1520           5.723           0.970           7.775           0.816          12.346           8.302          12.316
  1530           5.726           0.970           7.780           0.821          12.420           8.376          12.390
  1540           5.729           0.970           7.784           0.826          12.495           8.451          12.465
  1550           5.732           0.970           7.788           0.831          12.569           8.525          12.540
  1560           5.735           0.970           7.792           0.835          12.644           8.600          12.615
  1570           5.738           0.970           7.797           0.840          12.719           8.675          12.689
  1580           5.741           0.970           7.801           0.845          12.793           8.749          12.764
  1590           5.743           0.970           7.805           0.850          12.868           8.824          12.839
  1600           5.746           0.970           7.808           0.855          12.943           8.899          12.914
  1610           5.749           0.970           7.812           0.860          13.018           8.974          12.989
  1620           5.752           0.970           7.816           0.865          13.092           9.048          13.064
  1630           5.754           0.970           7.820           0.870          13.167           9.123          13.139
  1640           5.757           0.970           7.823           0.875          13.242           9.198          13.214
  1650           5.759           0.970           7.827           0.880          13.317           9.273          13.289
  1660           5.762           0.970           7.830           0.885          13.392           9.348          13.364
  1670           5.764           0.970           7.834           0.890          13.467           9.423          13.439
  1680           5.767           0.970           7.837           0.895          13.542           9.498          13.515
  1690           5.769           0.971           7.840           0.900          13.617           9.573          13.590
  1700           5.771           0.971           7.843           0.905          13.692           9.648          13.665
  1710           5.774           0.971           7.847           0.910          13.767           9.723          13.740
  1720           5.776           0.971           7.850           0.915          13.842           9.799          13.816
  1730           5.778           0.971           7.853           0.920          13.918           9.874          13.891
  1740           5.780           0.971           7.856           0.925          13.993           9.949          13.966
  1750           5.782           0.971           7.859           0.930          14.068          10.024          14.042
  1760           5.784           0.971           7.862           0.935          14.143          10.100          14.117
  1770           5.786           0.971           7.865           0.940          14.219          10.175          14.193
  1780           5.788           0.971           7.868           0.945          14.294          10.250          14.268
  1790           5.790           0.971           7.870           0.950          14.369          10.326          14.344
  1800           5.792           0.971           7.873           0.955          14.445          10.401          14.419
  1810           5.794           0.971           7.876           0.960          14.520          10.476          14.495
  1820           5.796           0.971           7.878           0.965          14.595          10.552          14.570
  1830           5.798           0.971           7.881           0.970          14.671          10.627          14.646
  1840           5.800           0.971           7.884           0.975          14.746          10.703          14.721
  1850           5.802           0.971           7.886           0.980          14.822          10.778          14.797
  1860           5.804           0.971           7.889           0.985          14.897          10.854          14.873
  1870           5.805           0.971           7.891           0.990          14.973          10.929          14.948
  1880           5.807           0.971           7.894           0.995          15.049          11.005          15.024
  1890           5.809           0.971           7.896           1.000          15.124          11.081          15.100
  1900           5.810           0.971           7.898           1.005          15.200          11.156          15.175
  1910           5.812           0.971           7.901           1.010          15.275          11.232          15.251
  1920           5.814           0.971           7.903           1.015          15.351          11.308          15.327
  1930           5.815           0.971           7.905           1.020          15.427          11.383          15.403
  1940           5.817           0.971           7.907           1.025          15.502          11.459          15.479
  1950           5.818           0.971           7.909           1.030          15.578          11.535          15.555
  1960           5.820           0.971           7.912           1.035          15.654          11.610          15.630
  1970           5.822           0.971           7.914           1.040          15.730          11.686          15.706
  1980           5.823           0.971           7.916           1.045          15.805          11.762          15.782
  1990           5.824           0.971           7.918           1.050          15.881          11.838          15.858
  2000           5.826           0.971           7.920           1.055          15.957          11.914          15.934
  2010           5.827           0.971           7.922           1.060          16.033          11.989          16.010
  2020           5.829           0.971           7.924           1.065          16.109          12.065          16.086
  2030           5.830           0.971           7.926           1.070          16.185          12.141          16.162
  2040           5.831           0.971           7.928           1.075          16.261          12.217          16.238
  2050           5.833           0.971           7.930           1.080          16.337          12.293          16.314
  2060           5.834           0.971           7.931           1.085          16.412          12.369          16.390
  2070           5.835           0.971           7.933           1.090          16.488          12.445          16.466
  2080           5.837           0.971           7.935           1.095          16.564          12.521          16.542
  2090           5.838           0.971           7.937           1.100          16.640          12.597          16.618
  2100           5.839           0.971           7.939           1.105          16.716          12.673          16.694
  2110           5.840           0.971           7.940           1.110          16.792          12.749          16.771
  2120           5.842           0.971           7.942           1.115          16.868          12.825          16.847
  2130           5.843           0.971           7.944           1.120          16.945          12.901          16.923
  2140           5.844           0.971           7.945           1.125          17.021          12.977          16.999
  2150           5.845           0.971           7.947           1.130          17.097          13.053          17.075
  2160           5.846           0.971           7.949           1.135          17.173          13.129          17.151
  2170           5.848           0.971           7.950           1.140          17.249          13.206          17.228
  2180           5.849           0.971           7.952           1.145          17.325          13.282          17.304
  2190           5.850           0.971           7.953           1.150          17.401          13.358          17.380
  2200           5.851           0.971           7.955           1.155          17.477          13.434          17.456
  2210           5.852           0.971           7.956           1.161          17.553          13.510          17.533
  2220           5.853           0.971           7.958           1.166          17.630          13.586          17.609
  2230           5.854           0.971           7.959           1.171          17.706          13.663          17.685
  2240           5.855           0.971           7.961           1.176          17.782          13.739          17.761
  2250           5.856           0.971           7.962           1.181          17.858          13.815          17.838
  2260           5.857           0.971           7.964           1.186          17.935          13.891          17.914
  2270           5.858           0.971           7.965           1.191          18.011          13.968          17.990
  2280           5.859           0.971           7.966           1.196          18.087          14.044          18.067
  2290           5.860           0.971           7.968           1.201          18.163          14.120          18.143
  2300           5.861           0.971           7.969           1.206          18.240          14.196          18.220
  2310           5.862           0.971           7.970           1.211          18.316          14.273          18.296
  2320           5.863           0.971           7.972           1.216          18.392          14.349          18.372
  2330           5.864           0.971           7.973           1.221          18.469          14.425          18.449
  2340           5.865           0.971           7.974           1.226          18.545          14.502          18.525
  2350           5.866           0.971           7.975           1.231          18.621          14.578          18.602
  2360           5.867           0.971           7.977           1.236          18.698          14.655          18.678
  2370           5.867           0.971           7.978           1.241          18.774          14.731          18.755
  2380           5.868           0.971           7.979           1.246          18.851          14.807          18.831
  2390           5.869           0.971           7.980           1.251          18.927          14.884          18.908
  2400           5.870           0.971           7.982           1.256          19.003          14.960          18.984
  2410           5.871           0.971           7.983           1.262          19.080          15.037          19.061
  2420           5.872           0.971           7.984           1.267          19.156          15.113          19.137
  2430           5.872           0.971           7.985           1.272          19.233          15.190          19.214
  2440           5.873           0.971           7.986           1.277          19.309          15.266          19.290
  2450           5.874           0.971           7.987           1.282          19.386          15.342          19.367
  2460           5.875           0.971           7.988           1.287          19.462          15.419          19.443
  2470           5.876           0.971           7.989           1.292          19.539          15.495          19.520
  2480           5.876           0.971           7.991           1.297          19.615          15.572          19.596
  2490           5.877           0.971           7.992           1.302          19.692          15.649          19.673
  2500           5.878           0.971           7.993           1.307          19.768          15.725          19.750
  2510           5.879           0.971           7.994           1.312          19.845          15.802          19.826
  2520           5.879           0.971           7.995           1.317          19.921          15.878          19.903
  2530           5.880           0.971           7.996           1.322          19.998          15.955          19.980
  2540           5.881           0.971           7.997           1.327          20.074          16.031          20.056
  2550           5.882           0.971           7.998           1.332          20.151          16.108          20.133
  2560           5.882           0.971           7.999           1.338          20.228          16.184          20.209
  2570           5.883           0.971           8.000           1.343          20.304          16.261          20.286
  2580           5.884           0.971           8.001           1.348          20.381          16.338          20.363
  2590           5.884           0.971           8.002           1.353          20.457          16.414          20.439
  2600           5.885           0.971           8.002           1.358          20.534          16.491          20.516
  2610           5.886           0.971           8.003           1.363          20.611          16.568          20.593
  2620           5.886           0.971           8.004           1.368          20.687          16.644          20.670
  2630           5.887           0.971           8.005           1.373          20.764          16.721          20.746
  2640           5.888           0.971           8.006           1.378          20.841          16.797          20.823
  2650           5.888           0.971           8.007           1.383          20.917          16.874          20.900
  2660           5.889           0.971           8.008           1.388          20.994          16.951          20.976
  2670           5.889           0.971           8.009           1.393          21.071          17.028          21.053
  2680           5.890           0.971           8.010           1.398          21.147          17.104          21.130
  2690           5.891           0.971           8.010           1.403          21.224          17.181          21.207
  2700           5.891           0.971           8.011           1.409          21.301          17.258          21.284
  2710           5.892           0.971           8.012           1.414          21.377          17.334          21.360
  2720           5.892           0.971           8.013           1.419          21.454          17.411          21.437
  2730           5.893           0.971           8.014           1.424          21.531          17.488          21.514
  2740           5.894           0.971           8.015           1.429          21.608          17.565          21.591
  2750           5.894           0.971           8.015           1.434          21.684          17.641          21.667
  2760           5.895           0.971           8.016           1.439          21.761          17.718          21.744
  2770           5.895           0.971           8.017           1.444          21.838          17.795          21.821
  2780           5.896           0.971           8.018           1.449          21.915          17.872          21.898
  2790           5.896           0.971           8.018           1.454          21.991          17.948          21.975
  2800           5.897           0.971           8.019           1.459          22.068          18.025          22.052
  2810           5.897           0.971           8.020           1.464          22.145          18.102          22.128
  2820           5.898           0.971           8.021           1.469          22.222          18.179          22.205
  2830           5.898           0.971           8.021           1.475          22.299          18.256          22.282
  2840           5.899           0.971           8.022           1.480          22.375          18.332          22.359
  2850           5.899           0.971           8.023           1.485          22.452          18.409          22.436
  2860           5.900           0.971           8.023           1.490          22.529          18.486          22.513
  2870           5.900           0.971           8.024           1.495          22.606          18.563          22.590
  2880           5.901           0.971           8.025           1.500          22.683          18.640          22.667
  2890           5.901           0.971           8.026           1.505          22.760          18.717          22.743
  2900           5.902           0.971           8.026           1.510          22.836          18.793          22.820
  2910           5.902           0.971           8.027           1.515          22.913          18.870          22.897
  2920           5.903           0.971           8.028           1.520          22.990          18.947          22.974
  2930           5.903           0.971           8.028           1.525          23.067          19.024          23.051
  2940           5.904           0.971           8.029           1.531          23.144          19.101          23.128
  2950           5.904           0.971           8.029           1.536          23.221          19.178          23.205
  2960           5.905           0.971           8.030           1.541          23.298          19.255          23.282
  2970           5.905           0.971           8.031           1.546          23.374          19.332          23.359
  2980           5.906           0.971           8.031           1.551          23.451          19.408          23.436
  2990           5.906           0.971           8.032           1.556          23.528          19.485          23.513
  3000           5.906           0.971           8.033           1.561          23.605          19.562          23.590
  3010           5.907           0.971           8.033           1.566          23.682          19.639          23.667
  3020           5.907           0.971           8.034           1.571          23.759          19.716          23.744
  3030           5.908           0.971           8.034           1.576          23.836          19.793          23.821
  3040           5.908           0.971           8.035           1.581          23.913          19.870          23.898
  3050           5.909           0.971           8.036           1.586          23.990          19.947          23.975
  3060           5.909           0.971           8.036           1.592          24.067          20.024          24.052
  3070           5.909           0.971           8.037           1.597          24.144          20.101          24.129
  3080           5.910           0.971           8.037           1.602          24.221          20.178          24.206
  3090           5.910           0.971           8.038           1.607          24.298          20.255          24.283
  3100           5.911           0.971           8.038           1.612          24.375          20.332          24.360
  3110           5.911           0.971           8.039           1.617          24.452          20.409          24.437
  3120           5.911           0.971           8.039           1.622          24.529          20.486          24.514
  3130           5.912           0.971           8.040           1.627          24.606          20.563          24.591
  3140           5.912           0.971           8.041           1.632          24.683          20.640          24.668
  3150           5.913           0.971           8.041           1.637          24.760          20.717          24.745
  3160           5.913           0.971           8.042           1.643          24.837          20.794          24.822
  3170           5.913           0.971           8.042           1.648          24.914          20.871          24.899
  3180           5.914           0.971           8.043           1.653          24.991          20.948          24.976
  3190           5.914           0.971           8.043           1.658          25.068          21.025          25.053
  3200           5.914           0.971           8.044           1.663          25.145          21.102          25.130
  3210           5.915           0.971           8.044           1.668          25.222          21.179          25.207
  3220           5.915           0.971           8.045           1.673          25.299          21.256          25.284
  3230           5.915           0.971           8.045           1.678          25.376          21.333          25.361
  3240           5.916           0.971           8.046           1.683          25.453          21.410          25.438
  3250           5.916           0.971           8.046           1.688          25.530          21.487          25.515
  3260           5.916           0.971           8.047           1.693          25.607          21.564          25.593
  3270           5.917           0.971           8.047           1.699          25.684          21.641          25.670
  3280           5.917           0.971           8.048           1.704          25.761          21.718          25.747
  3290           5.917           0.971           8.048           1.709          25.838          21.795          25.824
  3300           5.918           0.971           8.048           1.714          25.915          21.872          25.901
  3310           5.918           0.971           8.049           1.719          25.992          21.949          25.978
  3320           5.918           0.971           8.049           1.724          26.069          22.026          26.055
  3330           5.919           0.971           8.050           1.729          26.146          22.103          26.132
  3340           5.919           0.971           8.050           1.734          26.223          22.180          26.209
  3350           5.919           0.971           8.051           1.739          26.300          22.258          26.287
  3360           5.920           0.971           8.051           1.744          26.378          22.335          26.364
  3370           5.920           0.971           8.052           1.750          26.455          22.412          26.441
  3380           5.920           0.971           8.052           1.755          26.532          22.489          26.518
  3390           5.921           0.971           8.052           1.760          26.609          22.566          26.595
  3400           5.921           0.971           8.053           1.765          26.686          22.643          26.672
  3410           5.921           0.971           8.053           1.770          26.763          22.720          26.749
  3420           5.922           0.971           8.054           1.775          26.840          22.797          26.827
  3430           5.922           0.971           8.054           1.780          26.917          22.874          26.904
  3440           5.922           0.971           8.055           1.785          26.994          22.952          26.981
  3450           5.922           0.971           8.055           1.790          27.071          23.029          27.058
  3460           5.923           0.971           8.055           1.796          27.149          23.106          27.135
  3470           5.923           0.971           8.056           1.801          27.226          23.183          27.212
  3480           5.923           0.971           8.056           1.806          27.303          23.260          27.290
  3490           5.924           0.971           8.056           1.811          27.380          23.337          27.367
  3500           5.924           0.971           8.057           1.816          27.457          23.414          27.444
  3510           5.924           0.971           8.057           1.821          27.534          23.492          27.521
  3520           5.924           0.971           8.058           1.826          27.611          23.569          27.598
  3530           5.925           0.971           8.058           1.831          27.689          23.646          27.675
  3540           5.925           0.971           8.058           1.836          27.766          23.723          27.753
  3550           5.925           0.971           8.059           1.841          27.843          23.800          27.830
  3560           5.925           0.971           8.059           1.847          27.920          23.877          27.907
  3570           5.926           0.971           8.059           1.852          27.997          23.954          27.984
  3580           5.926           0.971           8.060           1.857          28.074          24.032          28.062
  3590           5.926           0.971           8.060           1.862          28.152          24.109          28.139
  3600           5.926           0.971           8.061           1.867          28.229          24.186          28.216
  3610           5.927           0.971           8.061           1.872          28.306          24.263          28.293
  3620           5.927           0.971           8.061           1.877          28.383          24.340          28.370
  3630           5.927           0.971           8.062           1.882          28.460          24.418          28.448
  3640           5.927           0.971           8.062           1.887          28.538          24.495          28.525
  3650           5.928           0.971           8.062           1.893          28.615          24.572          28.602
  3660           5.928           0.971           8.063           1.898          28.692          24.649          28.679
  3670           5.928           0.971           8.063           1.903          28.769          24.726          28.757
  3680           5.928           0.971           8.063           1.908          28.846          24.804          28.834
  3690           5.929           0.971           8.064           1.913          28.924          24.881          28.911
  3700           5.929           0.971           8.064           1.918          29.001          24.958          28.988
  3710           5.929           0.971           8.064           1.923          29.078          25.035          29.066
  3720           5.929           0.971           8.065           1.928          29.155          25.112          29.143
  3730           5.930           0.971           8.065           1.933          29.232          25.190          29.220
  3740           5.930           0.971           8.065           1.939          29.310          25.267          29.297
  3750           5.930           0.971           8.066           1.944          29.387          25.344          29.375
  3760           5.930           0.971           8.066           1.949          29.464          25.421          29.452
  3770           5.930           0.971           8.066           1.954          29.541          25.499          29.529
  3780           5.931           0.971           8.066           1.959          29.619          25.576          29.606
  3790           5.931           0.971           8.067           1.964          29.696          25.653          29.684
  3800           5.931           0.971           8.067           1.969          29.773          25.730          29.761
  3810           5.931           0.971           8.067           1.974          29.850          25.808          29.838
  3820           5.932           0.971           8.068           1.979          29.928          25.885          29.915
  3830           5.932           0.971           8.068           1.985          30.005          25.962          29.993
  3840           5.932           0.971           8.068           1.990          30.082          26.039          30.070
  3850           5.932           0.971           8.069           1.995          30.159          26.117          30.147
  3860           5.932           0.971           8.069           2.000          30.237          26.194          30.225
  3870           5.933           0.971           8.069           2.005          30.314          26.271          30.302
  3880           5.933           0.971           8.069           2.010          30.391          26.348          30.379
  3890           5.933           0.971           8.070           2.015          30.468          26.426          30.457
  3900           5.933           0.971           8.070           2.020          30.546          26.503          30.534
  3910           5.933           0.971           8.070           2.025          30.623          26.580          30.611
  3920           5.934           0.971           8.071           2.031          30.700          26.658          30.688
  3930           5.934           0.971           8.071           2.036          30.778          26.735          30.766
  3940           5.934           0.971           8.071           2.041          30.855          26.812          30.843
  3950           5.934           0.971           8.071           2.046          30.932          26.889          30.920
  3960           5.934           0.971           8.072           2.051          31.009          26.967          30.998
  3970           5.935           0.971           8.072           2.056          31.087          27.044          31.075
  3980           5.935           0.971           8.072           2.061          31.164          27.121          31.152
  3990           5.935           0.971           8.072           2.066          31.241          27.199          31.230
  4000           5.935           0.971           8.073           2.071          31.319          27.276          31.307
  4010           5.935           0.971           8.073           2.077          31.396          27.353          31.384
  4020           5.935           0.971           8.073           2.082          31.473          27.430          31.462
  4030           5.936           0.971           8.073           2.087          31.550          27.508          31.539
  4040           5.936           0.971           8.074           2.092          31.628          27.585          31.616
  4050           5.936           0.971           8.074           2.097          31.705          27.662          31.694
  4060           5.936           0.971           8.074           2.102          31.782          27.740          31.771
  4070           5.936           0.971           8.074           2.107          31.860          27.817          31.848
  4080           5.937           0.971           8.075           2.112          31.937          27.894          31.926
  4090           5.937           0.971           8.075           2.117          32.014          27.972          32.003
  4100           5.937           0.971           8.075           2.123          32.092          28.049          32.080
  4110           5.937           0.971           8.075           2.128          32.169          28.126          32.158
  4120           5.937           0.971           8.076           2.133          32.246          28.204          32.235
  4130           5.937           0.971           8.076           2.138          32.324          28.281          32.312
  4140           5.938           0.971           8.076           2.143          32.401          28.358          32.390
  4150           5.938           0.971           8.076           2.148          32.478          28.436          32.467
  4160           5.938           0.971           8.077           2.153          32.556          28.513          32.544
  4170           5.938           0.971           8.077           2.158          32.633          28.590          32.622
  4180           5.938           0.971           8.077           2.164          32.710          28.668          32.699
  4190           5.938           0.971           8.077           2.169          32.788          28.745          32.777
  4200           5.939           0.971           8.078           2.174          32.865          28.822          32.854
  4210           5.939           0.971           8.078           2.179          32.942          28.900          32.931
  4220           5.939           0.971           8.078           2.184          33.020          28.977          33.009
  4230           5.939           0.971           8.078           2.189          33.097          29.054          33.086
  4240           5.939           0.971           8.078           2.194          33.174          29.132          33.163
  4250           5.939           0.971           8.079           2.199          33.252          29.209          33.241
  4260           5.939           0.971           8.079           2.204          33.329          29.286          33.318
  4270           5.940           0.971           8.079           2.210          33.406          29.364          33.396
  4280           5.940           0.971           8.079           2.215          33.484          29.441          33.473
  4290           5.940           0.971           8.079           2.220          33.561          29.518          33.550
  4300           5.940           0.971           8.080           2.225          33.639          29.596          33.628
  4310           5.940           0.971           8.080           2.230          33.716          29.673          33.705
  4320           5.940           0.971           8.080           2.235          33.793          29.751          33.783
  4330           5.941           0.971           8.080           2.240          33.871          29.828          33.860
  4340           5.941           0.971           8.080           2.245          33.948          29.905          33.937
  4350           5.941           0.971           8.081           2.251          34.025          29.983          34.015
  4360           5.941           0.971           8.081           2.256          34.103          30.060          34.092
  4370           5.941           0.971           8.081           2.261          34.180          30.137          34.170
  4380           5.941           0.971           8.081           2.266          34.258          30.215          34.247
  4390           5.941           0.971           8.081           2.271          34.335          30.292          34.324
  4400           5.942           0.971           8.082           2.276          34.412          30.370          34.402
  4410           5.942           0.971           8.082           2.281          34.490          30.447          34.479
  4420           5.942           0.971           8.082           2.286          34.567          30.524          34.557
  4430           5.942           0.971           8.082           2.291          34.644          30.602          34.634
  4440           5.942           0.971           8.082           2.297          34.722          30.679          34.711
  4450           5.942           0.971           8.083           2.302          34.799          30.757          34.789
  4460           5.942           0.971           8.083           2.307          34.877          30.834          34.866
  4470           5.942           0.971           8.083           2.312          34.954          30.911          34.944
  4480           5.943           0.971           8.083           2.317          35.031          30.989          35.021
  4490           5.943           0.971           8.083           2.322          35.109          31.066          35.099
  4500           5.943           0.971           8.084           2.327          35.186          31.144          35.176
  4510           5.943           0.971           8.084           2.332          35.264          31.221          35.253
  4520           5.943           0.971           8.084           2.338          35.341          31.298          35.331
  4530           5.943           0.971           8.084           2.343          35.418          31.376          35.408
  4540           5.943           0.971           8.084           2.348          35.496          31.453          35.486
  4550           5.943           0.971           8.084           2.353          35.573          31.531          35.563
  4560           5.944           0.971           8.085           2.358          35.651          31.608          35.641
  4570           5.944           0.971           8.085           2.363          35.728          31.685          35.718
  4580           5.944           0.971           8.085           2.368          35.806          31.763          35.795
  4590           5.944           0.971           8.085           2.373          35.883          31.840          35.873
  4600           5.944           0.971           8.085           2.379          35.960          31.918          35.950
  4610           5.944           0.971           8.085           2.384          36.038          31.995          36.028
  4620           5.944           0.971           8.086           2.389          36.115          32.073          36.105
  4630           5.944           0.971           8.086           2.394          36.193          32.150          36.183
  4640           5.945           0.971           8.086           2.399          36.270          32.227          36.260
  4650           5.945           0.971           8.086           2.404          36.347          32.305          36.337
  4660           5.945           0.971           8.086           2.409          36.425          32.382          36.415
  4670           5.945           0.971           8.086           2.414          36.502          32.460          36.492
  4680           5.945           0.971           8.087           2.420          36.580          32.537          36.570
  4690           5.945           0.971           8.087           2.425          36.657          32.615          36.647
  4700           5.945           0.971           8.087           2.430          36.735          32.692          36.725
  4710           5.945           0.971           8.087           2.435          36.812          32.769          36.802
  4720           5.946           0.971           8.087           2.440          36.890          32.847          36.880
  4730           5.946           0.971           8.087           2.445          36.967          32.924          36.957
  4740           5.946           0.971           8.088           2.450          37.044          33.002          37.035
  4750           5.946           0.971           8.088           2.455          37.122          33.079          37.112
  4760           5.946           0.971           8.088           2.461          37.199          33.157          37.190
  4770           5.946           0.971           8.088           2.466          37.277          33.234          37.267
  4780           5.946           0.971           8.088           2.471          37.354          33.311          37.344
  4790           5.946           0.971           8.088           2.476          37.432          33.389          37.422
  4800           5.946           0.971           8.089           2.481          37.509          33.466          37.499
  4810           5.947           0.971           8.089           2.486          37.587          33.544          37.577
  4820           5.947           0.971           8.089           2.491          37.664          33.621          37.654
  4830           5.947           0.971           8.089           2.496          37.741          33.699          37.732
  4840           5.947           0.971           8.089           2.502          37.819          33.776          37.809
  4850           5.947           0.971           8.089           2.507          37.896          33.854          37.887
  4860           5.947           0.971           8.089           2.512          37.974          33.931          37.964
  4870           5.947           0.971           8.090           2.517          38.051          34.009          38.042
  4880           5.947           0.971           8.090           2.522          38.129          34.086          38.119
  4890           5.947           0.971           8.090           2.527          38.206          34.164          38.197
  4900           5.947           0.971           8.090           2.532          38.284          34.241          38.274
  4910           5.948           0.971           8.090           2.537          38.361          34.318          38.352
  4920           5.948           0.971           8.090           2.543          38.439          34.396          38.429
  4930           5.948           0.971           8.090           2.548          38.516          34.473          38.507
  4940           5.948           0.971           8.091           2.553          38.594          34.551          38.584
  4950           5.948           0.971           8.091           2.558          38.671          34.628          38.662
  4960           5.948           0.971           8.091           2.563          38.748          34.706          38.739
  4970           5.948           0.971           8.091           2.568          38.826          34.783          38.817
  4980           5.948           0.971           8.091           2.573          38.903          34.861          38.894
  4990           5.948           0.971           8.091           2.578          38.981          34.938          38.972
  5000           5.948           0.971           8.091           2.584          39.058          35.016          39.049
  5010           5.949           0.971           8.091           2.589          39.136          35.093          39.127
  5020           5.949           0.971           8.092           2.594          39.213          35.171          39.204
  5030           5.949           0.971           8.092           2.599          39.291          35.248          39.282
  5040           5.949           0.971           8.092           2.604          39.368          35.326          39.359
  5050           5.949           0.971           8.092           2.609          39.446          35.403          39.437
  5060           5.949           0.971           8.092           2.614          39.523          35.481          39.514
  5070           5.949           0.971           8.092           2.619          39.601          35.558          39.592
  5080           5.949           0.971           8.092           2.625          39.678          35.636          39.669
  5090           5.949           0.971           8.093           2.630          39.756          35.713          39.747
  5100           5.949           0.971           8.093           2.635          39.833          35.791          39.824
  5110           5.949           0.971           8.093           2.640          39.911          35.868          39.902
  5120           5.950           0.971           8.093           2.645          39.988          35.946          39.979
  5130           5.950           0.971           8.093           2.650          40.066          36.023          40.057
  5140           5.950           0.971           8.093           2.655          40.143          36.100          40.134
  5150           5.950           0.971           8.093           2.660          40.221          36.178          40.212
  5160           5.950           0.971           8.093           2.666          40.298          36.255          40.289
  5170           5.950           0.971           8.094           2.671          40.376          36.333          40.367
  5180           5.950           0.971           8.094           2.676          40.453          36.410          40.444
  5190           5.950           0.971           8.094           2.681          40.531          36.488          40.522
  5200           5.950           0.971           8.094           2.686          40.608          36.565          40.599
  5210           5.950           0.971           8.094           2.691          40.686          36.643          40.677
  5220           5.950           0.971           8.094           2.696          40.763          36.720          40.754
  5230           5.950           0.971           8.094           2.701          40.841          36.798          40.832
  5240           5.951           0.971           8.094           2.707          40.918          36.875          40.909
  5250           5.951           0.971           8.094           2.712          40.996          36.953          40.987
  5260           5.951           0.971           8.095           2.717          41.073          37.031          41.064
  5270           5.951           0.971           8.095           2.722          41.151          37.108          41.142
  5280           5.951           0.971           8.095           2.727          41.228          37.186          41.219
  5290           5.951           0.971           8.095           2.732          41.306          37.263          41.297
  5300           5.951           0.971           8.095           2.737          41.383          37.341          41.374
  5310           5.951           0.971           8.095           2.742          41.461          37.418          41.452
  5320           5.951           0.971           8.095           2.748          41.538          37.496          41.529
  5330           5.951           0.971           8.095           2.753          41.616          37.573          41.607
  5340           5.951           0.971           8.095           2.758          41.693          37.651          41.685
  5350           5.951           0.971           8.096           2.763          41.771          37.728          41.762
  5360           5.951           0.971           8.096           2.768          41.848          37.806          41.840
  5370           5.952           0.971           8.096           2.773          41.926          37.883          41.917
  5380           5.952           0.971           8.096           2.778          42.003          37.961          41.995
  5390           5.952           0.971           8.096           2.783          42.081          38.038          42.072
  5400           5.952           0.971           8.096           2.789          42.158          38.116          42.150
  5410           5.952           0.971           8.096           2.794          42.236          38.193          42.227
  5420           5.952           0.971           8.096           2.799          42.313          38.271          42.305
  5430           5.952           0.971           8.096           2.804          42.391          38.348          42.382
  5440           5.952           0.971           8.097           2.809          42.468          38.426          42.460
  5450           5.952           0.971           8.097           2.814          42.546          38.503          42.537
  5460           5.952           0.971           8.097           2.819          42.624          38.581          42.615
  5470           5.952           0.971           8.097           2.825          42.701          38.658          42.693
  5480           5.952           0.971           8.097           2.830          42.779          38.736          42.770
  5490           5.952           0.971           8.097           2.835          42.856          38.813          42.848
  5500           5.953           0.971           8.097           2.840          42.934          38.891          42.925
  5510           5.953           0.971           8.097           2.845          43.011          38.969          43.003
  5520           5.953           0.971           8.097           2.850          43.089          39.046          43.080
  5530           5.953           0.971           8.097           2.855          43.166          39.124          43.158
  5540           5.953           0.971           8.098           2.860          43.244          39.201          43.235
  5550           5.953           0.971           8.098           2.866          43.321          39.279          43.313
  5560           5.953           0.971           8.098           2.871          43.399          39.356          43.390
  5570           5.953           0.971           8.098           2.876          43.476          39.434          43.468
  5580           5.953           0.971           8.098           2.881          43.554          39.511          43.546
  5590           5.953           0.971           8.098           2.886          43.631          39.589          43.623
  5600           5.953           0.971           8.098           2.891          43.709          39.666          43.701
  5610           5.953           0.971           8.098           2.896          43.787          39.744          43.778
  5620           5.953           0.971           8.098           2.901          43.864          39.821          43.856
  5630           5.953           0.971           8.098           2.907          43.942          39.899          43.933
  5640           5.953           0.971           8.098           2.912          44.019          39.977          44.011
  5650           5.954           0.971           8.099           2.917          44.097          40.054          44.089
  5660           5.954           0.971           8.099           2.922          44.174          40.132          44.166
  5670           5.954           0.971           8.099           2.927          44.252          40.209          44.244
  5680           5.954           0.971           8.099           2.932          44.329          40.287          44.321
  5690           5.954           0.971           8.099           2.937          44.407          40.364          44.399
  5700           5.954           0.971           8.099           2.943          44.484          40.442          44.476
  5710           5.954           0.971           8.099           2.948          44.562          40.519          44.554
  5720           5.954           0.971           8.099           2.953          44.640          40.597          44.631
  5730           5.954           0.971           8.099           2.958          44.717          40.675          44.709
  5740           5.954           0.971           8.099           2.963          44.795          40.752          44.787
  5750           5.954           0.971           8.099           2.968          44.872          40.830          44.864
  5760           5.954           0.971           8.100           2.973          44.950          40.907          44.942
  5770           5.954           0.971           8.100           2.978          45.027          40.985          45.019
  5780           5.954           0.971           8.100           2.984          45.105          41.062          45.097
  5790           5.954           0.971           8.100           2.989          45.182          41.140          45.174
  5800           5.955           0.971           8.100           2.994          45.260          41.217          45.252
  5810           5.955           0.971           8.100           2.999          45.338          41.295          45.330
  5820           5.955           0.971           8.100           3.004          45.415          41.373          45.407
  5830           5.955           0.971           8.100           3.009          45.493          41.450          45.485
  5840           5.955           0.971           8.100           3.014          45.570          41.528          45.562
  5850           5.955           0.971           8.100           3.019          45.648          41.605          45.640
  5860           5.955           0.971           8.100           3.025          45.725          41.683          45.717
  5870           5.955           0.971           8.100           3.030          45.803          41.760          45.795
  5880           5.955           0.971           8.101           3.035          45.881          41.838          45.873
  5890           5.955           0.971           8.101           3.040          45.958          41.915          45.950
  5900           5.955           0.971           8.101           3.045          46.036          41.993          46.028
  5910           5.955           0.971           8.101           3.050          46.113          42.071          46.105
  5920           5.955           0.971           8.101           3.055          46.191          42.148          46.183
  5930           5.955           0.971           8.101           3.061          46.268          42.226          46.261
  5940           5.955           0.971           8.101           3.066          46.346          42.303          46.338
  5950           5.955           0.971           8.101           3.071          46.424          42.381          46.416
  5960           5.955           0.971           8.101           3.076          46.501          42.458          46.493
  5970           5.956           0.971           8.101           3.081          46.579          42.536          46.571
  5980           5.956           0.971           8.101           3.086          46.656          42.614          46.648
  5990           5.956           0.971           8.101           3.091          46.734          42.691          46.726
  6000           5.956           0.971           8.102           3.096          46.811          42.769          46.804
  6010           5.956           0.971           8.102           3.102          46.889          42.846          46.881
  6020           5.956           0.971           8.102           3.107          46.967          42.924          46.959
  6030           5.956           0.971           8.102           3.112          47.044          43.001          47.036
  6040           5.956           0.971           8.102           3.117          47.122          43.079          47.114
  6050           5.956           0.971           8.102           3.122          47.199          43.157          47.192
  6060           5.956           0.971           8.102           3.127          47.277          43.234          47.269
  6070           5.956           0.971           8.102           3.132          47.354          43.312          47.347
  6080           5.956           0.971           8.102           3.138          47.432          43.389          47.424
  6090           5.956           0.971           8.102           3.143          47.510          43.467          47.502
  6100           5.956           0.971           8.102           3.148          47.587          43.545          47.580
  6110           5.956           0.971           8.102           3.153          47.665          43.622          47.657
  6120           5.956           0.971           8.102           3.158          47.742          43.700          47.735
  6130           5.956           0.971           8.102           3.163          47.820          43.777          47.812
  6140           5.956           0.971           8.103           3.168          47.897          43.855          47.890
  6150           5.956           0.971           8.103           3.173          47.975          43.932          47.968
  6160           5.957           0.971           8.103           3.179          48.053          44.010          48.045
  6170           5.957           0.971           8.103           3.184          48.130          44.088          48.123
  6180           5.957           0.971           8.103           3.189          48.208          44.165          48.200
  6190           5.957           0.971           8.103           3.194          48.285          44.243          48.278
  6200           5.957           0.971           8.103           3.199          48.363          44.320          48.356
  6210           5.957           0.971           8.103           3.204          48.441          44.398          48.433
  6220           5.957           0.971           8.103           3.209          48.518          44.476          48.511
  6230           5.957           0.971           8.103           3.215          48.596          44.553          48.588
  6240           5.957           0.971           8.103           3.220          48.673          44.631          48.666
  6250           5.957           0.971           8.103           3.225          48.751          44.708          48.744
  6260           5.957           0.971           8.103           3.230          48.829          44.786          48.821
  6270           5.957           0.971           8.103           3.235          48.906          44.864          48.899
  6280           5.957           0.971           8.104           3.240          48.984          44.941          48.976
  6290           5.957           0.971           8.104           3.245          49.061          45.019          49.054
  6300           5.957           0.971           8.104           3.250          49.139          45.096          49.132
  6310           5.957           0.971           8.104           3.256          49.217          45.174          49.209
  6320           5.957           0.971           8.104           3.261          49.294          45.252          49.287
  6330           5.957           0.971           8.104           3.266          49.372          45.329          49.364
  6340           5.957           0.971           8.104           3.271          49.449          45.407          49.442
  6350           5.957           0.971           8.104           3.276          49.527          45.484          49.520
  6360           5.957           0.971           8.104           3.281          49.605          45.562          49.597
  6370           5.958           0.971           8.104           3.286          49.682          45.639          49.675
  6380           5.958           0.971           8.104           3.292          49.760          45.717          49.752
  6390           5.958           0.971           8.104           3.297          49.837          45.795          49.830
  6400           5.958           0.971           8.104           3.302          49.915          45.872          49.908
  6410           5.958           0.971           8.104           3.307          49.993          45.950          49.985
  6420           5.958           0.971           8.104           3.312          50.070          46.028          50.063
  6430           5.958           0.971           8.105           3.317          50.148          46.105          50.140
  6440           5.958           0.971           8.105           3.322          50.225          46.183          50.218
  6450           5.958           0.971           8.105           3.327          50.303          46.260          50.296
  6460           5.958           0.971           8.105           3.333          50.381          46.338          50.373
  6470           5.958           0.971           8.105           3.338          50.458          46.416          50.451
  6480           5.958           0.971           8.105           3.343          50.536          46.493          50.529
  6490           5.958           0.971           8.105           3.348          50.613          46.571          50.606
  6500           5.958           0.971           8.105           3.353          50.691          46.648          50.684
  6510           5.958           0.971           8.105           3.358          50.769          46.726          50.761
  6520           5.958           0.971           8.105           3.363          50.846          46.804          50.839
  6530           5.958           0.971           8.105           3.369          50.924          46.881          50.917
  6540           5.958           0.971           8.105           3.374          51.001          46.959          50.994
  6550           5.958           0.971           8.105           3.379          51.079          47.036          51.072
  6560           5.958           0.971           8.105           3.384          51.157          47.114          51.150
  6570           5.958           0.971           8.105           3.389          51.234          47.192          51.227
  6580           5.958           0.971           8.105           3.394          51.312          47.269          51.305
  6590           5.958           0.971           8.105           3.399          51.389          47.347          51.382
  6600           5.959           0.971           8.106           3.404          51.467          47.424          51.460
  6610           5.959           0.971           8.106           3.410          51.545          47.502          51.538
  6620           5.959           0.971           8.106           3.415          51.622          47.580          51.615
  6630           5.959           0.971           8.106           3.420          51.700          47.657          51.693
  6640           5.959           0.971           8.106           3.425          51.778          47.735          51.771
  6650           5.959           0.971           8.106           3.430          51.855          47.813          51.848
  6660           5.959           0.971           8.106           3.435          51.933          47.890          51.926
  6670           5.959           0.971           8.106           3.440          52.010          47.968          52.003
  6680           5.959           0.971           8.106           3.446          52.088          48.045          52.081
  6690           5.959           0.971           8.106           3.451          52.166          48.123          52.159
  6700           5.959           0.971           8.106           3.456          52.243          48.201          52.236
  6710           5.959           0.971           8.106           3.461          52.321          48.278          52.314
  6720           5.959           0.971           8.106           3.466          52.398          48.356          52.392
  6730           5.959           0.971           8.106           3.471          52.476          48.433          52.469
  6740           5.959           0.971           8.106           3.476          52.554          48.511          52.547
  6750           5.959           0.971           8.106           3.481          52.631          48.589          52.624
  6760           5.959           0.971           8.106           3.487          52.709          48.666          52.702
  6770           5.959           0.971           8.106           3.492          52.787          48.744          52.780
  6780           5.959           0.971           8.107           3.497          52.864          48.822          52.857
  6790           5.959           0.971           8.107           3.502          52.942          48.899          52.935
  6800           5.959           0.971           8.107           3.507          53.019          48.977          53.013
  6810           5.959           0.971           8.107           3.512          53.097          49.054          53.090
  6820           5.959           0.971           8.107           3.517          53.175          49.132          53.168
  6830           5.959           0.971           8.107           3.523          53.252          49.210          53.245
  6840           5.959           0.971           8.107           3.528          53.330          49.287          53.323
  6850           5.960           0.971           8.107           3.533          53.408          49.365          53.401
  6860           5.960           0.971           8.107           3.538          53.485          49.443          53.478
  6870           5.960           0.971           8.107           3.543          53.563          49.520          53.556
  6880           5.960           0.971           8.107           3.548          53.640          49.598          53.634
  6890           5.960           0.971           8.107           3.553          53.718          49.675          53.711
  6900           5.960           0.971           8.107           3.559          53.796          49.753          53.789
  6910           5.960           0.971           8.107           3.564          53.873          49.831          53.867
  6920           5.960           0.971           8.107           3.569          53.951          49.908          53.944
  6930           5.960           0.971           8.107           3.574          54.029          49.986          54.022
  6940           5.960           0.971           8.107           3.579          54.106          50.064          54.099
  6950           5.960           0.971           8.107           3.584          54.184          50.141          54.177
  6960           5.960           0.971           8.107           3.589          54.261          50.219          54.255
  6970           5.960           0.971           8.108           3.594          54.339          50.297          54.332
  6980           5.960           0.971           8.108           3.600          54.417          50.374          54.410
  6990           5.960           0.971           8.108           3.605          54.494          50.452          54.488
  7000           5.960           0.971           8.108           3.610          54.572          50.529          54.565
  7010           5.960           0.971           8.108           3.615          54.650          50.607          54.643
  7020           5.960           0.971           8.108           3.620          54.727          50.685          54.721
  7030           5.960           0.971           8.108           3.625          54.805          50.762          54.798
  7040           5.960           0.971           8.108           3.630          54.883          50.840          54.876
  7050           5.960           0.971           8.108           3.636          54.960          50.918          54.954
  7060           5.960           0.971           8.108           3.641          55.038          50.995          55.031
  7070           5.960           0.971           8.108           3.646          55.115          51.073          55.109
  7080           5.960           0.971           8.108           3.651          55.193          51.150          55.187
  7090           5.960           0.971           8.108           3.656          55.271          51.228          55.264
  7100           5.960           0.971           8.108           3.661          55.348          51.306          55.342
  7110           5.960           0.971           8.108           3.666          55.426          51.383          55.419
  7120           5.960           0.971           8.108           3.672          55.504          51.461          55.497
  7130           5.960           0.971           8.108           3.677          55.581          51.539          55.575
  7140           5.961           0.971           8.108           3.682          55.659          51.616          55.652
  7150           5.961           0.971           8.108           3.687          55.737          51.694          55.730
  7160           5.961           0.971           8.108           3.692          55.814          51.772          55.808
  7170           5.961           0.971           8.108           3.697          55.892          51.849          55.885
  7180           5.961           0.971           8.109           3.702          55.969          51.927          55.963
  7190           5.961           0.971           8.109           3.707          56.047          52.005          56.041
  7200           5.961           0.971           8.109           3.713          56.125          52.082          56.118
  7210           5.961           0.971           8.109           3.718          56.202          52.160          56.196
  7220           5.961           0.971           8.109           3.723          56.280          52.237          56.274
  7230           5.961           0.971           8.109           3.728          56.358          52.315          56.351
  7240           5.961           0.971           8.109           3.733          56.435          52.393          56.429
  7250           5.961           0.971           8.109           3.738          56.513          52.470          56.507
  7260           5.961           0.971           8.109           3.743          56.591          52.548          56.584
  7270           5.961           0.971           8.109           3.749          56.668          52.626          56.662
  7280           5.961           0.971           8.109           3.754          56.746          52.703          56.740
  7290           5.961           0.971           8.109           3.759          56.824          52.781          56.817
  7300           5.961           0.971           8.109           3.764          56.901          52.859          56.895
  7310           5.961           0.971           8.109           3.769          56.979          52.936          56.972
  7320           5.961           0.971           8.109           3.774          57.056          53.014          57.050
  7330           5.961           0.971           8.109           3.779          57.134          53.092          57.128
  7340           5.961           0.971           8.109           3.785          57.212          53.169          57.205
  7350           5.961           0.971           8.109           3.790          57.289          53.247          57.283
  7360           5.961           0.971           8.109           3.795          57.367          53.324          57.361
  7370           5.961           0.971           8.109           3.800          57.445          53.402          57.438
  7380           5.961           0.971           8.109           3.805          57.522          53.480          57.516
  7390           5.961           0.971           8.109           3.810          57.600          53.557          57.594
  7400           5.961           0.971           8.109           3.815          57.678          53.635          57.671
  7410           5.961           0.971           8.109           3.820          57.755          53.713          57.749
  7420           5.961           0.971           8.110           3.826          57.833          53.790          57.827
  7430           5.961           0.971           8.110           3.831          57.911          53.868          57.904
  7440           5.961           0.971           8.110           3.836          57.988          53.946          57.982
  7450           5.961           0.971           8.110           3.841          58.066          54.023          58.060
  7460           5.962           0.971           8.110           3.846          58.144          54.101          58.137
  7470           5.962           0.971           8.110           3.851          58.221          54.179          58.215
  7480           5.962           0.971           8.110           3.856          58.299          54.256          58.293
  7490           5.962           0.971           8.110           3.862          58.377          54.334          58.370
  7500           5.962           0.971           8.110           3.867          58.454          54.412          58.448
  7510           5.962           0.971           8.110           3.872          58.532          54.489          58.526
  7520           5.962           0.971           8.110           3.877          58.610          54.567          58.603
  7530           5.962           0.971           8.110           3.882          58.687          54.645          58.681
  7540           5.962           0.971           8.110           3.887          58.765          54.722          58.759
  7550           5.962           0.971           8.110           3.892          58.842          54.800          58.836
  7560           5.962           0.971           8.110           3.898          58.920          54.878          58.914
  7570           5.962           0.971           8.110           3.903          58.998          54.955          58.992
  7580           5.962           0.971           8.110           3.908          59.075          55.033          59.069
  7590           5.962           0.971           8.110           3.913          59.153          55.111          59.147
  7600           5.962           0.971           8.110           3.918          59.231          55.188          59.225
  7610           5.962           0.971           8.110           3.923          59.308          55.266          59.302
  7620           5.962           0.971           8.110           3.928          59.386          55.344          59.380
  7630           5.962           0.971           8.110           3.933          59.464          55.421          59.458
  7640           5.962           0.971           8.110           3.939          59.541          55.499          59.535
  7650           5.962           0.971           8.110           3.944          59.619          55.576          59.613
  7660           5.962           0.971           8.110           3.949          59.697          55.654          59.691
  7670           5.962           0.971           8.111           3.954          59.774          55.732          59.768
  7680           5.962           0.971           8.111           3.959          59.852          55.809          59.846
  7690           5.962           0.971           8.111           3.964          59.930          55.887          59.924
  7700           5.962           0.971           8.111           3.969          60.007          55.965          60.001
  7710           5.962           0.971           8.111           3.975          60.085          56.042          60.079
  7720           5.962           0.971           8.111           3.980          60.163          56.120          60.157
  7730           5.962           0.971           8.111           3.985          60.240          56.198          60.234
  7740           5.962           0.971           8.111           3.990          60.318          56.275          60.312
  7750           5.962           0.971           8.111           3.995          60.396          56.353          60.390
  7760           5.962           0.971           8.111           4.000          60.473          56.431          60.467
  7770           5.962           0.971           8.111           4.005          60.551          56.508          60.545
  7780           5.962           0.971           8.111           4.011          60.629          56.586          60.623
  7790           5.962           0.971           8.111           4.016          60.706          56.664          60.700
  7800           5.962           0.971           8.111           4.021          60.784          56.741          60.778
  7810           5.962           0.971           8.111           4.026          60.862          56.819          60.856
  7820           5.962           0.971           8.111           4.031          60.939          56.897          60.933
  7830           5.962           0.971           8.111           4.036          61.017          56.974          61.011
  7840           5.963           0.971           8.111           4.041          61.095          57.052          61.089
  7850           5.963           0.971           8.111           4.047          61.172          57.130          61.166
  7860           5.963           0.971           8.111           4.052          61.250          57.207          61.244
  7870           5.963           0.971           8.111           4.057          61.328          57.285          61.322
  7880           5.963           0.971           8.111           4.062          61.405          57.363          61.399
  7890           5.963           0.971           8.111           4.067          61.483          57.440          61.477
  7900           5.963           0.971           8.111           4.072          61.561          57.518          61.555
  7910           5.963           0.971           8.111           4.077          61.638          57.596          61.632
  7920           5.963           0.971           8.111           4.082          61.716          57.673          61.710
  7930           5.963           0.971           8.111           4.088          61.794          57.751          61.788
  7940           5.963           0.971           8.111           4.093          61.871          57.829          61.865
  7950           5.963           0.971           8.111           4.098          61.949          57.906          61.943
  7960           5.963           0.971           8.112           4.103          62.027          57.984          62.021
  7970           5.963           0.971           8.112           4.108          62.104          58.062          62.099
  7980           5.963           0.971           8.112           4.113          62.182          58.139          62.176
  7990           5.963           0.971           8.112           4.118          62.260          58.217          62.254
  8000           5.963           0.971           8.112           4.124          62.337          58.295          62.332
  8010           5.963           0.971           8.112           4.129          62.415          58.372          62.409
  8020           5.963           0.971           8.112           4.134          62.493          58.450          62.487
  8030           5.963           0.971           8.112           4.139          62.570          58.528          62.565
  8040           5.963           0.971           8.112           4.144          62.648          58.605          62.642
  8050           5.963           0.971           8.112           4.149          62.726          58.683          62.720
  8060           5.963           0.971           8.112           4.154          62.803          58.761          62.798
  8070           5.963           0.971           8.112           4.160          62.881          58.839          62.875
  8080           5.963           0.971           8.112           4.165          62.959          58.916          62.953
  8090           5.963           0.971           8.112           4.170          63.036          58.994          63.031
  8100           5.963           0.971           8.112           4.175          63.114          59.072          63.108
  8110           5.963           0.971           8.112           4.180          63.192          59.149          63.186
  8120           5.963           0.971           8.112           4.185          63.269          59.227          63.264
  8130           5.963           0.971           8.112           4.190          63.347          59.305          63.341
  8140           5.963           0.971           8.112           4.196          63.425          59.382          63.419
  8150           5.963           0.971           8.112           4.201          63.502          59.460          63.497
  8160           5.963           0.971           8.112           4.206          63.580          59.538          63.574
  8170           5.963           0.971           8.112           4.211          63.658          59.615          63.652
  8180           5.963           0.971           8.112           4.216          63.735          59.693          63.730
  8190           5.963           0.971           8.112           4.221          63.813          59.771          63.807
  8200           5.963           0.971           8.112           4.226          63.891          59.848          63.885
  8210           5.963           0.971           8.112           4.232          63.969          59.926          63.963
  8220           5.963           0.971           8.112           4.237          64.046          60.004          64.041
  8230           5.963           0.971           8.112           4.242          64.124          60.081          64.118
  8240           5.963           0.971           8.112           4.247          64.202          60.159          64.196
  8250           5.963           0.971           8.112           4.252          64.279          60.237          64.274
  8260           5.963           0.971           8.112           4.257          64.357          60.314          64.351
  8270           5.964           0.971           8.112           4.262          64.435          60.392          64.429
  8280           5.964           0.971           8.113           4.267          64.512          60.470          64.507
  8290           5.964           0.971           8.113           4.273          64.590          60.547          64.584
  8300           5.964           0.971           8.113           4.278          64.668          60.625          64.662
  8310           5.964           0.971           8.113           4.283          64.745          60.703          64.740
  8320           5.964           0.971           8.113           4.288          64.823          60.780          64.817
  8330           5.964           0.971           8.113           4.293          64.901          60.858          64.895
  8340           5.964           0.971           8.113           4.298          64.978          60.936          64.973
  8350           5.964           0.971           8.113           4.303          65.056          61.013          65.050
  8360           5.964           0.971           8.113           4.309          65.134          61.091          65.128
  8370           5.964           0.971           8.113           4.314          65.211          61.169          65.206
  8380           5.964           0.971           8.113           4.319          65.289          61.247          65.284
  8390           5.964           0.971           8.113           4.324          65.367          61.324          65.361
  8400           5.964           0.971           8.113           4.329          65.444          61.402          65.439
  8410           5.964           0.971           8.113           4.334          65.522          61.480          65.517
  8420           5.964           0.971           8.113           4.339          65.600          61.557          65.594
  8430           5.964           0.971           8.113           4.345          65.678          61.635          65.672
  8440           5.964           0.971           8.113           4.350          65.755          61.713          65.750
  8450           5.964           0.971           8.113           4.355          65.833          61.790          65.827
  8460           5.964           0.971           8.113           4.360          65.911          61.868          65.905
  8470           5.964           0.971           8.113           4.365          65.988          61.946          65.983
  8480           5.964           0.971           8.113           4.370          66.066          62.023          66.060
  8490           5.964           0.971           8.113           4.375          66.144          62.101          66.138
  8500           5.964           0.971           8.113           4.381          66.221          62.179          66.216
  8510           5.964           0.971           8.113           4.386          66.299          62.256          66.294
  8520           5.964           0.971           8.113           4.391          66.377          62.334          66.371
  8530           5.964           0.971           8.113           4.396          66.454          62.412          66.449
  8540           5.964           0.971           8.113           4.401          66.532          62.489          66.527
  8550           5.964           0.971           8.113           4.406          66.610          62.567          66.604
  8560           5.964           0.971           8.113           4.411          66.687          62.645          66.682
  8570           5.964           0.971           8.113           4.417          66.765          62.723          66.760
  8580           5.964           0.971           8.113           4.422          66.843          62.800          66.837
  8590           5.964           0.971           8.113           4.427          66.920          62.878          66.915
  8600           5.964           0.971           8.113           4.432          66.998          62.956          66.993
  8610           5.964           0.971           8.113           4.437          67.076          63.033          67.070
  8620           5.964           0.971           8.113           4.442          67.154          63.111          67.148
  8630           5.964           0.971           8.113           4.447          67.231          63.189          67.226
  8640           5.964           0.971           8.114           4.453          67.309          63.266          67.304
  8650           5.964           0.971           8.114           4.458          67.387          63.344          67.381
  8660           5.964           0.971           8.114           4.463          67.464          63.422          67.459
  8670           5.964           0.971           8.114           4.468          67.542          63.499          67.537
  8680           5.964           0.971           8.114           4.473          67.620          63.577          67.614
  8690           5.964           0.971           8.114           4.478          67.697          63.655          67.692
  8700           5.964           0.971           8.114           4.483          67.775          63.733          67.770
  8710           5.964           0.971           8.114           4.488          67.853          63.810          67.847
  8720           5.964           0.971           8.114           4.494          67.930          63.888          67.925
  8730           5.964           0.971           8.114           4.499          68.008          63.966          68.003
  8740           5.964           0.971           8.114           4.504          68.086          64.043          68.081
  8750           5.964           0.971           8.114           4.509          68.164          64.121          68.158
  8760           5.964           0.971           8.114           4.514          68.241          64.199          68.236
  8770           5.964           0.971           8.114           4.519          68.319          64.276          68.314
  8780           5.964           0.971           8.114           4.524          68.397          64.354          68.391
  8790           5.965           0.971           8.114           4.530          68.474          64.432          68.469
  8800           5.965           0.971           8.114           4.535          68.552          64.509          68.547
  8810           5.965           0.971           8.114           4.540          68.630          64.587          68.624
  8820           5.965           0.971           8.114           4.545          68.707          64.665          68.702
  8830           5.965           0.971           8.114           4.550          68.785          64.743          68.780
  8840           5.965           0.971           8.114           4.555          68.863          64.820          68.858
  8850           5.965           0.971           8.114           4.560          68.940          64.898          68.935
  8860           5.965           0.971           8.114           4.566          69.018          64.976          69.013
  8870           5.965           0.971           8.114           4.571          69.096          65.053          69.091
  8880           5.965           0.971           8.114           4.576          69.174          65.131          69.168
  8890           5.965           0.971           8.114           4.581          69.251          65.209          69.246
  8900           5.965           0.971           8.114           4.586          69.329          65.286          69.324
  8910           5.965           0.971           8.114           4.591          69.407          65.364          69.401
  8920           5.965           0.971           8.114           4.596          69.484          65.442          69.479
  8930           5.965           0.971           8.114           4.602          69.562          65.519          69.557
  8940           5.965           0.971           8.114           4.607          69.640          65.597          69.635
  8950           5.965           0.971           8.114           4.612          69.717          65.675          69.712
  8960           5.965           0.971           8.114           4.617          69.795          65.753          69.790
  8970           5.965           0.971           8.114           4.622          69.873          65.830          69.868
  8980           5.965           0.971           8.114           4.627          69.951          65.908          69.945
  8990           5.965           0.971           8.114           4.632          70.028          65.986          70.023
  9000           5.965           0.971           8.114           4.638          70.106          66.063          70.101
  9010           5.965           0.971           8.114           4.643          70.184          66.141          70.178
  9020           5.965           0.971           8.114           4.648          70.261          66.219          70.256
  9030           5.965           0.971           8.114           4.653          70.339          66.296          70.334
  9040           5.965           0.971           8.114           4.658          70.417          66.374          70.412
  9050           5.965           0.971           8.115           4.663          70.494          66.452          70.489
  9060           5.965           0.971           8.115           4.668          70.572          66.530          70.567
  9070           5.965           0.971           8.115           4.674          70.650          66.607          70.645
  9080           5.965           0.971           8.115           4.679          70.727          66.685          70.722
  9090           5.965           0.971           8.115           4.684          70.805          66.763          70.800
  9100           5.965           0.971           8.115           4.689          70.883          66.840          70.878
  9110           5.965           0.971           8.115           4.694          70.961          66.918          70.955
  9120           5.965           0.971           8.115           4.699          71.038          66.996          71.033
  9130           5.965           0.971           8.115           4.704          71.116          67.073          71.111
  9140           5.965           0.971           8.115           4.710          71.194          67.151          71.189
  9150           5.965           0.971           8.115           4.715          71.271          67.229          71.266
  9160           5.965           0.971           8.115           4.720          71.349          67.307          71.344
  9170           5.965           0.971           8.115           4.725          71.427          67.384          71.422
  9180           5.965           0.971           8.115           4.730          71.504          67.462          71.499
  9190           5.965           0.971           8.115           4.735          71.582          67.540          71.577
  9200           5.965           0.971           8.115           4.740          71.660          67.617          71.655
  9210           5.965           0.971           8.115           4.745          71.738          67.695          71.733
  9220           5.965           0.971           8.115           4.751          71.815          67.773          71.810
  9230           5.965           0.971           8.115           4.756          71.893          67.850          71.888
  9240           5.965           0.971           8.115           4.761          71.971          67.928          71.966
  9250           5.965           0.971           8.115           4.766          72.048          68.006          72.043
  9260           5.965           0.971           8.115           4.771          72.126          68.084          72.121
  9270           5.965           0.971           8.115           4.776          72.204          68.161          72.199
  9280           5.965           0.971           8.115           4.781          72.282          68.239          72.277
  9290           5.965           0.971           8.115           4.787          72.359          68.317          72.354
  9300           5.965           0.971           8.115           4.792          72.437          68.394          72.432
  9310           5.965           0.971           8.115           4.797          72.515          68.472          72.510
  9320           5.965           0.971           8.115           4.802          72.592          68.550          72.587
  9330           5.965           0.971           8.115           4.807          72.670          68.627          72.665
  9340           5.965           0.971           8.115           4.812          72.748          68.705          72.743
  9350           5.965           0.971           8.115           4.817          72.825          68.783          72.820
  9360           5.965           0.971           8.115           4.823          72.903          68.861          72.898
  9370           5.965           0.971           8.115           4.828          72.981          68.938          72.976
  9380           5.965           0.971           8.115           4.833          73.059          69.016          73.054
  9390           5.965           0.971           8.115           4.838          73.136          69.094          73.131
  9400           5.965           0.971           8.115           4.843          73.214          69.171          73.209
  9410           5.965           0.971           8.115           4.848          73.292          69.249          73.287
  9420           5.965           0.971           8.115           4.853          73.369          69.327          73.364
  9430           5.966           0.971           8.115           4.859          73.447          69.405          73.442
  9440           5.966           0.971           8.115           4.864          73.525          69.482          73.520
  9450           5.966           0.971           8.115           4.869          73.603          69.560          73.598
  9460           5.966           0.971           8.115           4.874          73.680          69.638          73.675
  9470           5.966           0.971           8.115           4.879          73.758          69.715          73.753
  9480           5.966           0.971           8.115           4.884          73.836          69.793          73.831
  9490           5.966           0.971           8.115           4.889          73.913          69.871          73.908
  9500           5.966           0.971           8.115           4.895          73.991          69.948          73.986
  9510           5.966           0.971           8.115           4.900          74.069          70.026          74.064
  9520           5.966           0.971           8.115           4.905          74.146          70.104          74.142
  9530           5.966           0.971           8.116           4.910          74.224          70.182          74.219
  9540           5.966           0.971           8.116           4.915          74.302          70.259          74.297
  9550           5.966           0.971           8.116           4.920          74.380          70.337          74.375
  9560           5.966           0.971           8.116           4.925          74.457          70.415          74.452
  9570           5.966           0.971           8.116           4.931          74.535          70.492          74.530
  9580           5.966           0.971           8.116           4.936          74.613          70.570          74.608
  9590           5.966           0.971           8.116           4.941          74.690          70.648          74.686
  9600           5.966           0.971           8.116           4.946          74.768          70.726          74.763
  9610           5.966           0.971           8.116           4.951          74.846          70.803          74.841
  9620           5.966           0.971           8.116           4.956          74.924          70.881          74.919
  9630           5.966           0.971           8.116           4.961          75.001          70.959          74.996
  9640           5.966           0.971           8.116           4.967          75.079          71.036          75.074
  9650           5.966           0.971           8.116           4.972          75.157          71.114          75.152
  9660           5.966           0.971           8.116           4.977          75.234          71.192          75.230
  9670           5.966           0.971           8.116           4.982          75.312          71.270          75.307
  9680           5.966           0.971           8.116           4.987          75.390          71.347          75.385
  9690           5.966           0.971           8.116           4.992          75.468          71.425          75.463
  9700           5.966           0.971           8.116           4.997          75.545          71.503          75.540
  9710           5.966           0.971           8.116           5.003          75.623          71.580          75.618
  9720           5.966           0.971           8.116           5.008          75.701          71.658          75.696
  9730           5.966           0.971           8.116           5.013          75.778          71.736          75.774
  9740           5.966           0.971           8.116           5.018          75.856          71.814          75.851
  9750           5.966           0.971           8.116           5.023          75.934          71.891          75.929
  9760           5.966           0.971           8.116           5.028          76.012          71.969          76.007
  9770           5.966           0.971           8.116           5.033          76.089          72.047          76.084
  9780           5.966           0.971           8.116           5.039          76.167          72.124          76.162
  9790           5.966           0.971           8.116           5.044          76.245          72.202          76.240
  9800           5.966           0.971           8.116           5.049          76.322          72.280          76.318
  9810           5.966           0.971           8.116           5.054          76.400          72.358          76.395
  9820           5.966           0.971           8.116           5.059          76.478          72.435          76.473
  9830           5.966           0.971           8.116           5.064          76.556          72.513          76.551
  9840           5.966           0.971           8.116           5.069          76.633          72.591          76.628
  9850           5.966           0.971           8.116           5.074          76.711          72.668          76.706
  9860           5.966           0.971           8.116           5.080          76.789          72.746          76.784
  9870           5.966           0.971           8.116           5.085          76.866          72.824          76.862
  9880           5.966           0.971           8.116           5.090          76.944          72.902          76.939
  9890           5.966           0.971           8.116           5.095          77.022          72.979          77.017
  9900           5.966           0.971           8.116           5.100          77.100          73.057          77.095
  9910           5.966           0.971           8.116           5.105          77.177          73.135          77.173
  9920           5.966           0.971           8.116           5.110          77.255          73.212          77.250
  9930           5.966           0.971           8.116           5.116          77.333          73.290          77.328
  9940           5.966           0.971           8.116           5.121          77.410          73.368          77.406
  9950           5.966           0.971           8.116           5.126          77.488          73.446          77.483
  9960           5.966           0.971           8.116           5.131          77.566          73.523          77.561
  9970           5.966           0.971           8.116           5.136          77.644          73.601          77.639
  9980           5.966           0.971           8.116           5.141          77.721          73.675          77.717
  9990           5.966           0.971           8.116           5.146          77.799          73.766          77.794
 10000           5.966           0.971           8.116           5.152          77.877          73.795          77.872
