#   T(K)    C_v(k_B/fu)        Gamma     alpha_v*10^6(K^-1)   E_th(eV)                       P_th(GPa)
#                                                                         ----------------------------------------------
#                                                                          {sum G_i.U_iV}  {int G.C_v/V dT}    {G.U/V}
# ----------------------------------------------------------------------------------------------------------------------
    10           0.008           0.467           0.005           0.172           0.745           0.000           0.320
    20           0.139           0.605           0.112           0.172           0.746           0.000           0.414
    30           0.456           0.682           0.418           0.172           0.746           0.001           0.468
    40           0.857           0.721           0.829           0.172           0.748           0.003           0.496
    50           1.263           0.753           1.276           0.173           0.750           0.007           0.521
    60           1.656           0.786           1.747           0.175           0.754           0.011           0.548
    70           2.038           0.819           2.242           0.176           0.759           0.017           0.576
    80           2.413           0.852           2.759           0.178           0.766           0.024           0.605
    90           2.784           0.881           3.291           0.180           0.774           0.032           0.634
   100           3.148           0.906           3.828           0.183           0.783           0.042           0.661
   110           3.504           0.927           4.361           0.186           0.793           0.053           0.688
   120           3.847           0.945           4.880           0.189           0.805           0.066           0.713
   130           4.177           0.960           5.379           0.192           0.818           0.080           0.737
   140           4.489           0.971           5.854           0.196           0.833           0.095           0.760
   150           4.784           0.981           6.301           0.200           0.848           0.111           0.784
   160           5.060           0.989           6.719           0.204           0.865           0.128           0.807
   170           5.317           0.996           7.109           0.209           0.883           0.146           0.830
   180           5.557           1.002           7.470           0.214           0.901           0.165           0.854
   190           5.778           1.006           7.804           0.218           0.921           0.185           0.877
   200           5.984           1.010           8.113           0.224           0.941           0.206           0.901
   210           6.173           1.013           8.397           0.229           0.962           0.228           0.925
   220           6.348           1.016           8.659           0.234           0.984           0.250           0.950
   230           6.509           1.019           8.900           0.240           1.007           0.273           0.974
   240           6.658           1.021           9.123           0.245           1.030           0.296           0.999
   250           6.796           1.023           9.328           0.251           1.053           0.320           1.025
   260           6.923           1.024           9.517           0.257           1.078           0.344           1.051
   270           7.041           1.026           9.692           0.263           1.102           0.369           1.077
   280           7.149           1.027           9.853           0.269           1.127           0.394           1.103
   290           7.250           1.028          10.002           0.275           1.153           0.420           1.130
   300           7.343           1.029          10.140           0.282           1.178           0.446           1.156
   310           7.430           1.030          10.268           0.288           1.205           0.472           1.184
   320           7.510           1.030          10.387           0.295           1.231           0.499           1.211
   330           7.585           1.031          10.497           0.301           1.258           0.526           1.238
   340           7.655           1.032          10.600           0.308           1.285           0.553           1.266
   350           7.719           1.032          10.696           0.314           1.312           0.580           1.294
   360           7.780           1.033          10.785           0.321           1.340           0.608           1.322
   370           7.837           1.033          10.868           0.328           1.367           0.636           1.351
   380           7.889           1.034          10.946           0.334           1.395           0.664           1.379
   390           7.939           1.034          11.019           0.341           1.423           0.692           1.408
   400           7.985           1.034          11.087           0.348           1.452           0.720           1.437
   410           8.029           1.035          11.151           0.355           1.480           0.749           1.466
   420           8.070           1.035          11.211           0.362           1.509           0.778           1.495
   430           8.108           1.035          11.268           0.369           1.538           0.807           1.524
   440           8.145           1.036          11.321           0.376           1.567           0.836           1.553
   450           8.179           1.036          11.371           0.383           1.596           0.865           1.583
   460           8.211           1.036          11.418           0.390           1.625           0.894           1.612
   470           8.241           1.036          11.463           0.397           1.654           0.923           1.642
   480           8.270           1.036          11.505           0.404           1.684           0.953           1.671
   490           8.297           1.037          11.545           0.411           1.713           0.982           1.701
   500           8.323           1.037          11.582           0.419           1.743           1.012           1.731
   510           8.347           1.037          11.618           0.426           1.772           1.042           1.761
   520           8.371           1.037          11.652           0.433           1.802           1.072           1.791
   530           8.393           1.037          11.684           0.440           1.832           1.102           1.821
   540           8.413           1.037          11.714           0.447           1.862           1.132           1.852
   550           8.433           1.037          11.743           0.455           1.892           1.162           1.882
   560           8.452           1.038          11.771           0.462           1.922           1.192           1.912
   570           8.470           1.038          11.797           0.469           1.952           1.222           1.943
   580           8.487           1.038          11.822           0.476           1.983           1.252           1.973
   590           8.503           1.038          11.846           0.484           2.013           1.283           2.003
   600           8.519           1.038          11.869           0.491           2.043           1.313           2.034
   610           8.534           1.038          11.890           0.498           2.074           1.344           2.065
   620           8.548           1.038          11.911           0.506           2.104           1.374           2.095
   630           8.561           1.038          11.931           0.513           2.135           1.405           2.126
   640           8.574           1.038          11.950           0.521           2.165           1.435           2.157
   650           8.587           1.038          11.968           0.528           2.196           1.466           2.187
   660           8.599           1.038          11.985           0.535           2.227           1.497           2.218
   670           8.610           1.038          12.002           0.543           2.257           1.527           2.249
   680           8.621           1.039          12.018           0.550           2.288           1.558           2.280
   690           8.631           1.039          12.033           0.558           2.319           1.589           2.311
   700           8.641           1.039          12.047           0.565           2.350           1.620           2.342
   710           8.651           1.039          12.061           0.573           2.381           1.651           2.373
   720           8.660           1.039          12.075           0.580           2.412           1.682           2.404
   730           8.669           1.039          12.088           0.587           2.443           1.713           2.435
   740           8.678           1.039          12.100           0.595           2.474           1.744           2.466
   750           8.686           1.039          12.112           0.602           2.505           1.775           2.497
   760           8.694           1.039          12.124           0.610           2.536           1.806           2.528
   770           8.702           1.039          12.135           0.617           2.567           1.837           2.560
   780           8.709           1.039          12.146           0.625           2.598           1.868           2.591
   790           8.716           1.039          12.156           0.632           2.629           1.899           2.622
   800           8.723           1.039          12.166           0.640           2.660           1.930           2.653
   810           8.729           1.039          12.176           0.647           2.691           1.961           2.685
   820           8.736           1.039          12.185           0.655           2.722           1.993           2.716
   830           8.742           1.039          12.194           0.663           2.754           2.024           2.747
   840           8.748           1.039          12.203           0.670           2.785           2.055           2.778
   850           8.754           1.039          12.211           0.678           2.816           2.086           2.810
   860           8.759           1.039          12.219           0.685           2.847           2.118           2.841
   870           8.765           1.039          12.227           0.693           2.879           2.149           2.873
   880           8.770           1.039          12.234           0.700           2.910           2.180           2.904
   890           8.775           1.039          12.242           0.708           2.941           2.212           2.935
   900           8.780           1.039          12.249           0.715           2.973           2.243           2.967
   910           8.784           1.039          12.256           0.723           3.004           2.274           2.998
   920           8.789           1.039          12.262           0.731           3.036           2.306           3.030
   930           8.793           1.039          12.269           0.738           3.067           2.337           3.061
   940           8.798           1.039          12.275           0.746           3.098           2.369           3.093
   950           8.802           1.040          12.281           0.753           3.130           2.400           3.124
   960           8.806           1.040          12.287           0.761           3.161           2.432           3.156
   970           8.810           1.040          12.293           0.768           3.193           2.463           3.187
   980           8.813           1.040          12.298           0.776           3.224           2.495           3.219
   990           8.817           1.040          12.303           0.784           3.256           2.526           3.250
  1000           8.821           1.040          12.309           0.791           3.287           2.558           3.282
  1010           8.824           1.040          12.314           0.799           3.319           2.589           3.314
  1020           8.827           1.040          12.319           0.806           3.351           2.621           3.345
  1030           8.831           1.040          12.323           0.814           3.382           2.652           3.377
  1040           8.834           1.040          12.328           0.822           3.414           2.684           3.408
  1050           8.837           1.040          12.332           0.829           3.445           2.716           3.440
  1060           8.840           1.040          12.337           0.837           3.477           2.747           3.472
  1070           8.843           1.040          12.341           0.844           3.508           2.779           3.503
  1080           8.846           1.040          12.345           0.852           3.540           2.810           3.535
  1090           8.849           1.040          12.349           0.860           3.572           2.842           3.567
  1100           8.851           1.040          12.353           0.867           3.603           2.874           3.598
  1110           8.854           1.040          12.357           0.875           3.635           2.905           3.630
  1120           8.856           1.040          12.361           0.883           3.667           2.937           3.662
  1130           8.859           1.040          12.364           0.890           3.698           2.969           3.694
  1140           8.861           1.040          12.368           0.898           3.730           3.000           3.725
  1150           8.864           1.040          12.371           0.906           3.762           3.032           3.757
  1160           8.866           1.040          12.375           0.913           3.793           3.064           3.789
  1170           8.868           1.040          12.378           0.921           3.825           3.095           3.820
  1180           8.870           1.040          12.381           0.928           3.857           3.127           3.852
  1190           8.873           1.040          12.384           0.936           3.888           3.159           3.884
  1200           8.875           1.040          12.387           0.944           3.920           3.191           3.916
  1210           8.877           1.040          12.390           0.951           3.952           3.222           3.948
  1220           8.879           1.040          12.393           0.959           3.984           3.254           3.979
  1230           8.881           1.040          12.396           0.967           4.015           3.286           4.011
  1240           8.883           1.040          12.399           0.974           4.047           3.318           4.043
  1250           8.884           1.040          12.401           0.982           4.079           3.349           4.075
  1260           8.886           1.040          12.404           0.990           4.111           3.381           4.106
  1270           8.888           1.040          12.406           0.997           4.142           3.413           4.138
  1280           8.890           1.040          12.409           1.005           4.174           3.445           4.170
  1290           8.891           1.040          12.411           1.013           4.206           3.477           4.202
  1300           8.893           1.040          12.414           1.020           4.238           3.508           4.234
  1310           8.895           1.040          12.416           1.028           4.270           3.540           4.266
  1320           8.896           1.040          12.418           1.036           4.301           3.572           4.297
  1330           8.898           1.040          12.421           1.043           4.333           3.604           4.329
  1340           8.899           1.040          12.423           1.051           4.365           3.636           4.361
  1350           8.901           1.040          12.425           1.059           4.397           3.667           4.393
  1360           8.902           1.040          12.427           1.066           4.429           3.699           4.425
  1370           8.904           1.040          12.429           1.074           4.461           3.731           4.457
  1380           8.905           1.040          12.431           1.082           4.492           3.763           4.489
  1390           8.906           1.040          12.433           1.089           4.524           3.795           4.520
  1400           8.908           1.040          12.435           1.097           4.556           3.827           4.552
  1410           8.909           1.040          12.437           1.105           4.588           3.858           4.584
  1420           8.910           1.040          12.439           1.112           4.620           3.890           4.616
  1430           8.911           1.040          12.441           1.120           4.652           3.922           4.648
  1440           8.913           1.040          12.442           1.128           4.684           3.954           4.680
  1450           8.914           1.040          12.444           1.135           4.715           3.986           4.712
  1460           8.915           1.040          12.446           1.143           4.747           4.018           4.744
  1470           8.916           1.040          12.447           1.151           4.779           4.050           4.776
  1480           8.917           1.040          12.449           1.158           4.811           4.082           4.808
  1490           8.918           1.040          12.451           1.166           4.843           4.113           4.839
  1500           8.919           1.040          12.452           1.174           4.875           4.145           4.871
  1510           8.920           1.040          12.454           1.182           4.907           4.177           4.903
  1520           8.921           1.040          12.455           1.189           4.939           4.209           4.935
  1530           8.923           1.040          12.457           1.197           4.971           4.241           4.967
  1540           8.924           1.040          12.458           1.205           5.003           4.273           4.999
  1550           8.924           1.040          12.460           1.212           5.034           4.305           5.031
  1560           8.925           1.040          12.461           1.220           5.066           4.337           5.063
  1570           8.926           1.040          12.462           1.228           5.098           4.369           5.095
  1580           8.927           1.040          12.464           1.235           5.130           4.401           5.127
  1590           8.928           1.040          12.465           1.243           5.162           4.433           5.159
  1600           8.929           1.040          12.466           1.251           5.194           4.465           5.191
  1610           8.930           1.040          12.468           1.258           5.226           4.497           5.223
  1620           8.931           1.040          12.469           1.266           5.258           4.528           5.255
  1630           8.932           1.040          12.470           1.274           5.290           4.560           5.287
  1640           8.932           1.040          12.471           1.282           5.322           4.592           5.319
  1650           8.933           1.040          12.472           1.289           5.354           4.624           5.351
  1660           8.934           1.040          12.474           1.297           5.386           4.656           5.383
  1670           8.935           1.040          12.475           1.305           5.418           4.688           5.415
  1680           8.936           1.040          12.476           1.312           5.450           4.720           5.446
  1690           8.936           1.040          12.477           1.320           5.482           4.752           5.478
  1700           8.937           1.040          12.478           1.328           5.514           4.784           5.510
  1710           8.938           1.040          12.479           1.335           5.546           4.816           5.542
  1720           8.939           1.040          12.480           1.343           5.577           4.848           5.574
  1730           8.939           1.040          12.481           1.351           5.609           4.880           5.606
  1740           8.940           1.040          12.482           1.359           5.641           4.912           5.638
  1750           8.941           1.040          12.483           1.366           5.673           4.944           5.670
  1760           8.941           1.040          12.484           1.374           5.705           4.976           5.702
  1770           8.942           1.040          12.485           1.382           5.737           5.008           5.734
  1780           8.943           1.040          12.486           1.389           5.769           5.040           5.766
  1790           8.943           1.040          12.487           1.397           5.801           5.072           5.798
  1800           8.944           1.040          12.488           1.405           5.833           5.104           5.830
  1810           8.944           1.040          12.489           1.412           5.865           5.136           5.862
  1820           8.945           1.040          12.490           1.420           5.897           5.168           5.894
  1830           8.946           1.040          12.490           1.428           5.929           5.200           5.926
  1840           8.946           1.040          12.491           1.436           5.961           5.232           5.958
  1850           8.947           1.040          12.492           1.443           5.993           5.264           5.990
  1860           8.947           1.040          12.493           1.451           6.025           5.296           6.022
  1870           8.948           1.040          12.494           1.459           6.057           5.328           6.054
  1880           8.949           1.040          12.495           1.466           6.089           5.360           6.086
  1890           8.949           1.040          12.495           1.474           6.121           5.392           6.119
  1900           8.950           1.040          12.496           1.482           6.153           5.424           6.151
  1910           8.950           1.040          12.497           1.490           6.185           5.456           6.183
  1920           8.951           1.040          12.498           1.497           6.217           5.488           6.215
  1930           8.951           1.040          12.498           1.505           6.249           5.520           6.247
  1940           8.952           1.040          12.499           1.513           6.281           5.552           6.279
  1950           8.952           1.040          12.500           1.520           6.313           5.584           6.311
  1960           8.953           1.040          12.500           1.528           6.345           5.616           6.343
  1970           8.953           1.040          12.501           1.536           6.377           5.648           6.375
  1980           8.954           1.040          12.502           1.544           6.409           5.680           6.407
  1990           8.954           1.040          12.503           1.551           6.441           5.712           6.439
  2000           8.954           1.040          12.503           1.559           6.474           5.744           6.471
  2010           8.955           1.040          12.504           1.567           6.506           5.776           6.503
  2020           8.955           1.040          12.504           1.574           6.538           5.808           6.535
  2030           8.956           1.040          12.505           1.582           6.570           5.840           6.567
  2040           8.956           1.040          12.506           1.590           6.602           5.872           6.599
  2050           8.957           1.040          12.506           1.598           6.634           5.904           6.631
  2060           8.957           1.040          12.507           1.605           6.666           5.936           6.663
  2070           8.958           1.040          12.508           1.613           6.698           5.968           6.695
  2080           8.958           1.040          12.508           1.621           6.730           6.000           6.727
  2090           8.958           1.040          12.509           1.628           6.762           6.032           6.759
  2100           8.959           1.040          12.509           1.636           6.794           6.064           6.791
  2110           8.959           1.040          12.510           1.644           6.826           6.096           6.823
  2120           8.959           1.040          12.510           1.652           6.858           6.129           6.855
  2130           8.960           1.040          12.511           1.659           6.890           6.161           6.888
  2140           8.960           1.040          12.512           1.667           6.922           6.193           6.920
  2150           8.961           1.040          12.512           1.675           6.954           6.225           6.952
  2160           8.961           1.040          12.513           1.683           6.986           6.257           6.984
  2170           8.961           1.040          12.513           1.690           7.018           6.289           7.016
  2180           8.962           1.040          12.514           1.698           7.050           6.321           7.048
  2190           8.962           1.040          12.514           1.706           7.082           6.353           7.080
  2200           8.962           1.040          12.515           1.713           7.114           6.385           7.112
  2210           8.963           1.040          12.515           1.721           7.146           6.417           7.144
  2220           8.963           1.040          12.516           1.729           7.179           6.449           7.176
  2230           8.963           1.040          12.516           1.737           7.211           6.481           7.208
  2240           8.964           1.040          12.517           1.744           7.243           6.513           7.240
  2250           8.964           1.040          12.517           1.752           7.275           6.545           7.272
  2260           8.964           1.040          12.517           1.760           7.307           6.577           7.304
  2270           8.965           1.040          12.518           1.767           7.339           6.609           7.336
  2280           8.965           1.040          12.518           1.775           7.371           6.641           7.369
  2290           8.965           1.040          12.519           1.783           7.403           6.674           7.401
  2300           8.966           1.040          12.519           1.791           7.435           6.706           7.433
  2310           8.966           1.040          12.520           1.798           7.467           6.738           7.465
  2320           8.966           1.040          12.520           1.806           7.499           6.770           7.497
  2330           8.966           1.040          12.521           1.814           7.531           6.802           7.529
  2340           8.967           1.040          12.521           1.822           7.563           6.834           7.561
  2350           8.967           1.040          12.521           1.829           7.595           6.866           7.593
  2360           8.967           1.040          12.522           1.837           7.627           6.898           7.625
  2370           8.968           1.040          12.522           1.845           7.660           6.930           7.657
  2380           8.968           1.040          12.523           1.852           7.692           6.962           7.689
  2390           8.968           1.040          12.523           1.860           7.724           6.994           7.721
  2400           8.968           1.040          12.523           1.868           7.756           7.026           7.754
  2410           8.969           1.040          12.524           1.876           7.788           7.058           7.786
  2420           8.969           1.040          12.524           1.883           7.820           7.091           7.818
  2430           8.969           1.040          12.524           1.891           7.852           7.123           7.850
  2440           8.969           1.040          12.525           1.899           7.884           7.155           7.882
  2450           8.970           1.040          12.525           1.907           7.916           7.187           7.914
  2460           8.970           1.040          12.526           1.914           7.948           7.219           7.946
  2470           8.970           1.040          12.526           1.922           7.980           7.251           7.978
  2480           8.970           1.040          12.526           1.930           8.012           7.283           8.010
  2490           8.971           1.040          12.527           1.937           8.045           7.315           8.042
  2500           8.971           1.040          12.527           1.945           8.077           7.347           8.075
  2510           8.971           1.040          12.527           1.953           8.109           7.379           8.107
  2520           8.971           1.040          12.528           1.961           8.141           7.411           8.139
  2530           8.972           1.040          12.528           1.968           8.173           7.443           8.171
  2540           8.972           1.040          12.528           1.976           8.205           7.476           8.203
  2550           8.972           1.040          12.529           1.984           8.237           7.508           8.235
  2560           8.972           1.040          12.529           1.992           8.269           7.540           8.267
  2570           8.972           1.040          12.529           1.999           8.301           7.572           8.299
  2580           8.973           1.040          12.530           2.007           8.333           7.604           8.331
  2590           8.973           1.040          12.530           2.015           8.365           7.636           8.363
  2600           8.973           1.040          12.530           2.023           8.398           7.668           8.396
  2610           8.973           1.040          12.530           2.030           8.430           7.700           8.428
  2620           8.973           1.040          12.531           2.038           8.462           7.732           8.460
  2630           8.974           1.040          12.531           2.046           8.494           7.764           8.492
  2640           8.974           1.040          12.531           2.053           8.526           7.797           8.524
  2650           8.974           1.040          12.532           2.061           8.558           7.829           8.556
  2660           8.974           1.040          12.532           2.069           8.590           7.861           8.588
  2670           8.974           1.040          12.532           2.077           8.622           7.893           8.620
  2680           8.975           1.040          12.532           2.084           8.654           7.925           8.652
  2690           8.975           1.040          12.533           2.092           8.686           7.957           8.684
  2700           8.975           1.040          12.533           2.100           8.719           7.989           8.717
  2710           8.975           1.040          12.533           2.108           8.751           8.021           8.749
  2720           8.975           1.040          12.533           2.115           8.783           8.053           8.781
  2730           8.976           1.040          12.534           2.123           8.815           8.085           8.813
  2740           8.976           1.040          12.534           2.131           8.847           8.118           8.845
  2750           8.976           1.040          12.534           2.139           8.879           8.150           8.877
  2760           8.976           1.040          12.535           2.146           8.911           8.182           8.909
  2770           8.976           1.040          12.535           2.154           8.943           8.214           8.941
  2780           8.976           1.040          12.535           2.162           8.975           8.246           8.974
  2790           8.977           1.040          12.535           2.169           9.008           8.278           9.006
  2800           8.977           1.040          12.536           2.177           9.040           8.310           9.038
  2810           8.977           1.040          12.536           2.185           9.072           8.342           9.070
  2820           8.977           1.040          12.536           2.193           9.104           8.374           9.102
  2830           8.977           1.040          12.536           2.200           9.136           8.407           9.134
  2840           8.977           1.040          12.536           2.208           9.168           8.439           9.166
  2850           8.978           1.040          12.537           2.216           9.200           8.471           9.198
  2860           8.978           1.040          12.537           2.224           9.232           8.503           9.230
  2870           8.978           1.040          12.537           2.231           9.264           8.535           9.263
  2880           8.978           1.040          12.537           2.239           9.297           8.567           9.295
  2890           8.978           1.040          12.538           2.247           9.329           8.599           9.327
  2900           8.978           1.040          12.538           2.255           9.361           8.631           9.359
  2910           8.978           1.040          12.538           2.262           9.393           8.663           9.391
  2920           8.979           1.040          12.538           2.270           9.425           8.696           9.423
  2930           8.979           1.040          12.538           2.278           9.457           8.728           9.455
  2940           8.979           1.040          12.539           2.286           9.489           8.760           9.487
  2950           8.979           1.040          12.539           2.293           9.521           8.792           9.520
  2960           8.979           1.040          12.539           2.301           9.553           8.824           9.552
  2970           8.979           1.040          12.539           2.309           9.586           8.856           9.584
  2980           8.979           1.040          12.539           2.316           9.618           8.888           9.616
  2990           8.980           1.040          12.540           2.324           9.650           8.920           9.648
  3000           8.980           1.040          12.540           2.332           9.682           8.953           9.680
  3010           8.980           1.040          12.540           2.340           9.714           8.985           9.712
  3020           8.980           1.040          12.540           2.347           9.746           9.017           9.744
  3030           8.980           1.040          12.540           2.355           9.778           9.049           9.777
  3040           8.980           1.040          12.541           2.363           9.810           9.081           9.809
  3050           8.980           1.040          12.541           2.371           9.843           9.113           9.841
  3060           8.981           1.040          12.541           2.378           9.875           9.145           9.873
  3070           8.981           1.040          12.541           2.386           9.907           9.177           9.905
  3080           8.981           1.040          12.541           2.394           9.939           9.210           9.937
  3090           8.981           1.040          12.542           2.402           9.971           9.242           9.969
  3100           8.981           1.040          12.542           2.409          10.003           9.274          10.002
  3110           8.981           1.040          12.542           2.417          10.035           9.306          10.034
  3120           8.981           1.040          12.542           2.425          10.067           9.338          10.066
  3130           8.981           1.040          12.542           2.433          10.100           9.370          10.098
  3140           8.981           1.040          12.542           2.440          10.132           9.402          10.130
  3150           8.982           1.040          12.543           2.448          10.164           9.434          10.162
  3160           8.982           1.040          12.543           2.456          10.196           9.467          10.194
  3170           8.982           1.040          12.543           2.463          10.228           9.499          10.226
  3180           8.982           1.040          12.543           2.471          10.260           9.531          10.259
  3190           8.982           1.040          12.543           2.479          10.292           9.563          10.291
  3200           8.982           1.040          12.543           2.487          10.325           9.595          10.323
  3210           8.982           1.040          12.544           2.494          10.357           9.627          10.355
  3220           8.982           1.040          12.544           2.502          10.389           9.659          10.387
  3230           8.982           1.040          12.544           2.510          10.421           9.692          10.419
  3240           8.983           1.040          12.544           2.518          10.453           9.724          10.451
  3250           8.983           1.040          12.544           2.525          10.485           9.756          10.484
  3260           8.983           1.040          12.544           2.533          10.517           9.788          10.516
  3270           8.983           1.040          12.545           2.541          10.549           9.820          10.548
  3280           8.983           1.040          12.545           2.549          10.582           9.852          10.580
  3290           8.983           1.040          12.545           2.556          10.614           9.884          10.612
  3300           8.983           1.040          12.545           2.564          10.646           9.916          10.644
  3310           8.983           1.040          12.545           2.572          10.678           9.949          10.676
  3320           8.983           1.040          12.545           2.580          10.710           9.981          10.709
  3330           8.984           1.040          12.545           2.587          10.742          10.013          10.741
  3340           8.984           1.040          12.546           2.595          10.774          10.045          10.773
  3350           8.984           1.040          12.546           2.603          10.807          10.077          10.805
  3360           8.984           1.040          12.546           2.611          10.839          10.109          10.837
  3370           8.984           1.040          12.546           2.618          10.871          10.141          10.869
  3380           8.984           1.040          12.546           2.626          10.903          10.174          10.901
  3390           8.984           1.040          12.546           2.634          10.935          10.206          10.934
  3400           8.984           1.040          12.546           2.642          10.967          10.238          10.966
  3410           8.984           1.040          12.547           2.649          10.999          10.270          10.998
  3420           8.984           1.040          12.547           2.657          11.031          10.302          11.030
  3430           8.984           1.040          12.547           2.665          11.064          10.334          11.062
  3440           8.985           1.040          12.547           2.673          11.096          10.366          11.094
  3450           8.985           1.040          12.547           2.680          11.128          10.399          11.126
  3460           8.985           1.040          12.547           2.688          11.160          10.431          11.159
  3470           8.985           1.040          12.547           2.696          11.192          10.463          11.191
  3480           8.985           1.040          12.547           2.703          11.224          10.495          11.223
  3490           8.985           1.040          12.548           2.711          11.256          10.527          11.255
  3500           8.985           1.040          12.548           2.719          11.289          10.559          11.287
  3510           8.985           1.040          12.548           2.727          11.321          10.591          11.319
  3520           8.985           1.040          12.548           2.734          11.353          10.624          11.351
  3530           8.985           1.040          12.548           2.742          11.385          10.656          11.384
  3540           8.985           1.040          12.548           2.750          11.417          10.688          11.416
  3550           8.986           1.040          12.548           2.758          11.449          10.720          11.448
  3560           8.986           1.040          12.548           2.765          11.481          10.752          11.480
  3570           8.986           1.040          12.549           2.773          11.514          10.784          11.512
  3580           8.986           1.040          12.549           2.781          11.546          10.816          11.544
  3590           8.986           1.040          12.549           2.789          11.578          10.849          11.576
  3600           8.986           1.040          12.549           2.796          11.610          10.881          11.609
  3610           8.986           1.040          12.549           2.804          11.642          10.913          11.641
  3620           8.986           1.040          12.549           2.812          11.674          10.945          11.673
  3630           8.986           1.040          12.549           2.820          11.706          10.977          11.705
  3640           8.986           1.040          12.549           2.827          11.739          11.009          11.737
  3650           8.986           1.040          12.549           2.835          11.771          11.041          11.769
  3660           8.986           1.040          12.550           2.843          11.803          11.074          11.801
  3670           8.986           1.040          12.550           2.851          11.835          11.106          11.834
  3680           8.987           1.040          12.550           2.858          11.867          11.138          11.866
  3690           8.987           1.040          12.550           2.866          11.899          11.170          11.898
  3700           8.987           1.040          12.550           2.874          11.932          11.202          11.930
  3710           8.987           1.040          12.550           2.882          11.964          11.234          11.962
  3720           8.987           1.040          12.550           2.889          11.996          11.266          11.994
  3730           8.987           1.040          12.550           2.897          12.028          11.299          12.027
  3740           8.987           1.040          12.550           2.905          12.060          11.331          12.059
  3750           8.987           1.040          12.550           2.913          12.092          11.363          12.091
  3760           8.987           1.040          12.551           2.920          12.124          11.395          12.123
  3770           8.987           1.040          12.551           2.928          12.157          11.427          12.155
  3780           8.987           1.040          12.551           2.936          12.189          11.459          12.187
  3790           8.987           1.040          12.551           2.944          12.221          11.491          12.219
  3800           8.987           1.040          12.551           2.951          12.253          11.524          12.252
  3810           8.987           1.040          12.551           2.959          12.285          11.556          12.284
  3820           8.987           1.040          12.551           2.967          12.317          11.588          12.316
  3830           8.988           1.040          12.551           2.975          12.349          11.620          12.348
  3840           8.988           1.040          12.551           2.982          12.382          11.652          12.380
  3850           8.988           1.040          12.551           2.990          12.414          11.684          12.412
  3860           8.988           1.040          12.552           2.998          12.446          11.717          12.445
  3870           8.988           1.040          12.552           3.005          12.478          11.749          12.477
  3880           8.988           1.040          12.552           3.013          12.510          11.781          12.509
  3890           8.988           1.040          12.552           3.021          12.542          11.813          12.541
  3900           8.988           1.040          12.552           3.029          12.575          11.845          12.573
  3910           8.988           1.040          12.552           3.036          12.607          11.877          12.605
  3920           8.988           1.040          12.552           3.044          12.639          11.909          12.637
  3930           8.988           1.040          12.552           3.052          12.671          11.942          12.670
  3940           8.988           1.040          12.552           3.060          12.703          11.974          12.702
  3950           8.988           1.040          12.552           3.067          12.735          12.006          12.734
  3960           8.988           1.040          12.552           3.075          12.767          12.038          12.766
  3970           8.988           1.040          12.552           3.083          12.800          12.070          12.798
  3980           8.988           1.040          12.553           3.091          12.832          12.102          12.830
  3990           8.989           1.040          12.553           3.098          12.864          12.135          12.863
  4000           8.989           1.040          12.553           3.106          12.896          12.167          12.895
  4010           8.989           1.040          12.553           3.114          12.928          12.199          12.927
  4020           8.989           1.040          12.553           3.122          12.960          12.231          12.959
  4030           8.989           1.040          12.553           3.129          12.993          12.263          12.991
  4040           8.989           1.040          12.553           3.137          13.025          12.295          13.023
  4050           8.989           1.040          12.553           3.145          13.057          12.327          13.056
  4060           8.989           1.040          12.553           3.153          13.089          12.360          13.088
  4070           8.989           1.040          12.553           3.160          13.121          12.392          13.120
  4080           8.989           1.040          12.553           3.168          13.153          12.424          13.152
  4090           8.989           1.040          12.553           3.176          13.185          12.456          13.184
  4100           8.989           1.040          12.554           3.184          13.218          12.488          13.216
  4110           8.989           1.040          12.554           3.191          13.250          12.520          13.249
  4120           8.989           1.040          12.554           3.199          13.282          12.553          13.281
  4130           8.989           1.040          12.554           3.207          13.314          12.585          13.313
  4140           8.989           1.040          12.554           3.215          13.346          12.617          13.345
  4150           8.989           1.040          12.554           3.222          13.378          12.649          13.377
  4160           8.989           1.040          12.554           3.230          13.411          12.681          13.409
  4170           8.989           1.040          12.554           3.238          13.443          12.713          13.441
  4180           8.990           1.040          12.554           3.246          13.475          12.746          13.474
  4190           8.990           1.040          12.554           3.253          13.507          12.778          13.506
  4200           8.990           1.040          12.554           3.261          13.539          12.810          13.538
  4210           8.990           1.040          12.554           3.269          13.571          12.842          13.570
  4220           8.990           1.040          12.554           3.277          13.604          12.874          13.602
  4230           8.990           1.040          12.554           3.284          13.636          12.906          13.634
  4240           8.990           1.040          12.555           3.292          13.668          12.938          13.667
  4250           8.990           1.040          12.555           3.300          13.700          12.971          13.699
  4260           8.990           1.040          12.555           3.308          13.732          13.003          13.731
  4270           8.990           1.040          12.555           3.315          13.764          13.035          13.763
  4280           8.990           1.040          12.555           3.323          13.796          13.067          13.795
  4290           8.990           1.040          12.555           3.331          13.829          13.099          13.827
  4300           8.990           1.040          12.555           3.339          13.861          13.131          13.860
  4310           8.990           1.040          12.555           3.346          13.893          13.164          13.892
  4320           8.990           1.040          12.555           3.354          13.925          13.196          13.924
  4330           8.990           1.040          12.555           3.362          13.957          13.228          13.956
  4340           8.990           1.040          12.555           3.370          13.989          13.260          13.988
  4350           8.990           1.040          12.555           3.377          14.022          13.292          14.020
  4360           8.990           1.040          12.555           3.385          14.054          13.324          14.053
  4370           8.990           1.040          12.555           3.393          14.086          13.357          14.085
  4380           8.990           1.040          12.555           3.401          14.118          13.389          14.117
  4390           8.991           1.040          12.556           3.408          14.150          13.421          14.149
  4400           8.991           1.040          12.556           3.416          14.182          13.453          14.181
  4410           8.991           1.040          12.556           3.424          14.215          13.485          14.213
  4420           8.991           1.040          12.556           3.432          14.247          13.517          14.246
  4430           8.991           1.040          12.556           3.439          14.279          13.550          14.278
  4440           8.991           1.040          12.556           3.447          14.311          13.582          14.310
  4450           8.991           1.040          12.556           3.455          14.343          13.614          14.342
  4460           8.991           1.040          12.556           3.463          14.375          13.646          14.374
  4470           8.991           1.040          12.556           3.470          14.408          13.678          14.406
  4480           8.991           1.040          12.556           3.478          14.440          13.710          14.439
  4490           8.991           1.040          12.556           3.486          14.472          13.743          14.471
  4500           8.991           1.040          12.556           3.494          14.504          13.775          14.503
  4510           8.991           1.040          12.556           3.501          14.536          13.807          14.535
  4520           8.991           1.040          12.556           3.509          14.568          13.839          14.567
  4530           8.991           1.040          12.556           3.517          14.601          13.871          14.599
  4540           8.991           1.040          12.556           3.525          14.633          13.903          14.632
  4550           8.991           1.040          12.557           3.532          14.665          13.936          14.664
  4560           8.991           1.040          12.557           3.540          14.697          13.968          14.696
  4570           8.991           1.040          12.557           3.548          14.729          14.000          14.728
  4580           8.991           1.040          12.557           3.556          14.761          14.032          14.760
  4590           8.991           1.040          12.557           3.563          14.794          14.064          14.792
  4600           8.991           1.040          12.557           3.571          14.826          14.096          14.825
  4610           8.991           1.040          12.557           3.579          14.858          14.128          14.857
  4620           8.991           1.040          12.557           3.587          14.890          14.161          14.889
  4630           8.991           1.040          12.557           3.594          14.922          14.193          14.921
  4640           8.992           1.040          12.557           3.602          14.954          14.225          14.953
  4650           8.992           1.040          12.557           3.610          14.987          14.257          14.985
  4660           8.992           1.040          12.557           3.617          15.019          14.289          15.018
  4670           8.992           1.040          12.557           3.625          15.051          14.321          15.050
  4680           8.992           1.040          12.557           3.633          15.083          14.354          15.082
  4690           8.992           1.040          12.557           3.641          15.115          14.386          15.114
  4700           8.992           1.040          12.557           3.648          15.147          14.418          15.146
  4710           8.992           1.040          12.557           3.656          15.180          14.450          15.178
  4720           8.992           1.040          12.557           3.664          15.212          14.482          15.211
  4730           8.992           1.040          12.557           3.672          15.244          14.514          15.243
  4740           8.992           1.040          12.558           3.679          15.276          14.547          15.275
  4750           8.992           1.040          12.558           3.687          15.308          14.579          15.307
  4760           8.992           1.040          12.558           3.695          15.340          14.611          15.339
  4770           8.992           1.040          12.558           3.703          15.373          14.643          15.371
  4780           8.992           1.040          12.558           3.710          15.405          14.675          15.404
  4790           8.992           1.040          12.558           3.718          15.437          14.708          15.436
  4800           8.992           1.040          12.558           3.726          15.469          14.740          15.468
  4810           8.992           1.040          12.558           3.734          15.501          14.772          15.500
  4820           8.992           1.040          12.558           3.741          15.533          14.804          15.532
  4830           8.992           1.040          12.558           3.749          15.566          14.836          15.564
  4840           8.992           1.040          12.558           3.757          15.598          14.868          15.597
  4850           8.992           1.040          12.558           3.765          15.630          14.901          15.629
  4860           8.992           1.040          12.558           3.772          15.662          14.933          15.661
  4870           8.992           1.040          12.558           3.780          15.694          14.965          15.693
  4880           8.992           1.040          12.558           3.788          15.726          14.997          15.725
  4890           8.992           1.040          12.558           3.796          15.759          15.029          15.757
  4900           8.992           1.040          12.558           3.803          15.791          15.061          15.790
  4910           8.992           1.040          12.558           3.811          15.823          15.094          15.822
  4920           8.992           1.040          12.558           3.819          15.855          15.126          15.854
  4930           8.992           1.040          12.558           3.827          15.887          15.158          15.886
  4940           8.993           1.040          12.558           3.834          15.919          15.190          15.918
  4950           8.993           1.040          12.558           3.842          15.952          15.222          15.951
  4960           8.993           1.040          12.559           3.850          15.984          15.254          15.983
  4970           8.993           1.040          12.559           3.858          16.016          15.287          16.015
  4980           8.993           1.040          12.559           3.865          16.048          15.319          16.047
  4990           8.993           1.040          12.559           3.873          16.080          15.351          16.079
  5000           8.993           1.040          12.559           3.881          16.112          15.383          16.111
  5010           8.993           1.040          12.559           3.889          16.145          15.415          16.144
  5020           8.993           1.040          12.559           3.896          16.177          15.447          16.176
  5030           8.993           1.040          12.559           3.904          16.209          15.480          16.208
  5040           8.993           1.040          12.559           3.912          16.241          15.512          16.240
  5050           8.993           1.040          12.559           3.920          16.273          15.544          16.272
  5060           8.993           1.040          12.559           3.927          16.305          15.576          16.304
  5070           8.993           1.040          12.559           3.935          16.338          15.608          16.337
  5080           8.993           1.040          12.559           3.943          16.370          15.640          16.369
  5090           8.993           1.040          12.559           3.951          16.402          15.673          16.401
  5100           8.993           1.040          12.559           3.958          16.434          15.705          16.433
  5110           8.993           1.040          12.559           3.966          16.466          15.737          16.465
  5120           8.993           1.040          12.559           3.974          16.498          15.769          16.497
  5130           8.993           1.040          12.559           3.982          16.531          15.801          16.530
  5140           8.993           1.040          12.559           3.989          16.563          15.833          16.562
  5150           8.993           1.040          12.559           3.997          16.595          15.866          16.594
  5160           8.993           1.040          12.559           4.005          16.627          15.898          16.626
  5170           8.993           1.040          12.559           4.013          16.659          15.930          16.658
  5180           8.993           1.040          12.559           4.020          16.692          15.962          16.691
  5190           8.993           1.040          12.559           4.028          16.724          15.994          16.723
  5200           8.993           1.040          12.560           4.036          16.756          16.026          16.755
  5210           8.993           1.040          12.560           4.044          16.788          16.059          16.787
  5220           8.993           1.040          12.560           4.051          16.820          16.091          16.819
  5230           8.993           1.040          12.560           4.059          16.852          16.123          16.851
  5240           8.993           1.040          12.560           4.067          16.885          16.155          16.884
  5250           8.993           1.040          12.560           4.075          16.917          16.187          16.916
  5260           8.993           1.040          12.560           4.082          16.949          16.220          16.948
  5270           8.993           1.040          12.560           4.090          16.981          16.252          16.980
  5280           8.993           1.040          12.560           4.098          17.013          16.284          17.012
  5290           8.993           1.040          12.560           4.106          17.045          16.316          17.044
  5300           8.993           1.040          12.560           4.113          17.078          16.348          17.077
  5310           8.994           1.040          12.560           4.121          17.110          16.380          17.109
  5320           8.994           1.040          12.560           4.129          17.142          16.413          17.141
  5330           8.994           1.040          12.560           4.137          17.174          16.445          17.173
  5340           8.994           1.040          12.560           4.144          17.206          16.477          17.205
  5350           8.994           1.040          12.560           4.152          17.238          16.509          17.237
  5360           8.994           1.040          12.560           4.160          17.271          16.541          17.270
  5370           8.994           1.040          12.560           4.168          17.303          16.573          17.302
  5380           8.994           1.040          12.560           4.175          17.335          16.606          17.334
  5390           8.994           1.040          12.560           4.183          17.367          16.638          17.366
  5400           8.994           1.040          12.560           4.191          17.399          16.670          17.398
  5410           8.994           1.040          12.560           4.199          17.432          16.702          17.431
  5420           8.994           1.040          12.560           4.206          17.464          16.734          17.463
  5430           8.994           1.040          12.560           4.214          17.496          16.766          17.495
  5440           8.994           1.040          12.560           4.222          17.528          16.799          17.527
  5450           8.994           1.040          12.560           4.230          17.560          16.831          17.559
  5460           8.994           1.040          12.560           4.237          17.592          16.863          17.591
  5470           8.994           1.040          12.560           4.245          17.625          16.895          17.624
  5480           8.994           1.040          12.560           4.253          17.657          16.927          17.656
  5490           8.994           1.040          12.561           4.261          17.689          16.960          17.688
  5500           8.994           1.040          12.561           4.268          17.721          16.992          17.720
  5510           8.994           1.040          12.561           4.276          17.753          17.024          17.752
  5520           8.994           1.040          12.561           4.284          17.785          17.056          17.784
  5530           8.994           1.040          12.561           4.292          17.818          17.088          17.817
  5540           8.994           1.040          12.561           4.299          17.850          17.120          17.849
  5550           8.994           1.040          12.561           4.307          17.882          17.153          17.881
  5560           8.994           1.040          12.561           4.315          17.914          17.185          17.913
  5570           8.994           1.040          12.561           4.323          17.946          17.217          17.945
  5580           8.994           1.040          12.561           4.330          17.978          17.249          17.978
  5590           8.994           1.040          12.561           4.338          18.011          17.281          18.010
  5600           8.994           1.040          12.561           4.346          18.043          17.313          18.042
  5610           8.994           1.040          12.561           4.354          18.075          17.346          18.074
  5620           8.994           1.040          12.561           4.361          18.107          17.378          18.106
  5630           8.994           1.040          12.561           4.369          18.139          17.410          18.138
  5640           8.994           1.040          12.561           4.377          18.172          17.442          18.171
  5650           8.994           1.040          12.561           4.385          18.204          17.474          18.203
  5660           8.994           1.040          12.561           4.392          18.236          17.507          18.235
  5670           8.994           1.040          12.561           4.400          18.268          17.539          18.267
  5680           8.994           1.040          12.561           4.408          18.300          17.571          18.299
  5690           8.994           1.040          12.561           4.416          18.332          17.603          18.332
  5700           8.994           1.040          12.561           4.423          18.365          17.635          18.364
  5710           8.994           1.040          12.561           4.431          18.397          17.667          18.396
  5720           8.994           1.040          12.561           4.439          18.429          17.700          18.428
  5730           8.994           1.040          12.561           4.447          18.461          17.732          18.460
  5740           8.994           1.040          12.561           4.454          18.493          17.764          18.492
  5750           8.994           1.040          12.561           4.462          18.525          17.796          18.525
  5760           8.994           1.040          12.561           4.470          18.558          17.828          18.557
  5770           8.995           1.040          12.561           4.478          18.590          17.860          18.589
  5780           8.995           1.040          12.561           4.485          18.622          17.893          18.621
  5790           8.995           1.040          12.561           4.493          18.654          17.925          18.653
  5800           8.995           1.040          12.561           4.501          18.686          17.957          18.685
  5810           8.995           1.040          12.561           4.509          18.719          17.989          18.718
  5820           8.995           1.040          12.561           4.516          18.751          18.021          18.750
  5830           8.995           1.040          12.562           4.524          18.783          18.054          18.782
  5840           8.995           1.040          12.562           4.532          18.815          18.086          18.814
  5850           8.995           1.040          12.562           4.540          18.847          18.118          18.846
  5860           8.995           1.040          12.562           4.547          18.879          18.150          18.879
  5870           8.995           1.040          12.562           4.555          18.912          18.182          18.911
  5880           8.995           1.040          12.562           4.563          18.944          18.214          18.943
  5890           8.995           1.040          12.562           4.571          18.976          18.247          18.975
  5900           8.995           1.040          12.562           4.578          19.008          18.279          19.007
  5910           8.995           1.040          12.562           4.586          19.040          18.311          19.039
  5920           8.995           1.040          12.562           4.594          19.073          18.343          19.072
  5930           8.995           1.040          12.562           4.602          19.105          18.375          19.104
  5940           8.995           1.040          12.562           4.609          19.137          18.407          19.136
  5950           8.995           1.040          12.562           4.617          19.169          18.440          19.168
  5960           8.995           1.040          12.562           4.625          19.201          18.472          19.200
  5970           8.995           1.040          12.562           4.633          19.233          18.504          19.233
  5980           8.995           1.040          12.562           4.640          19.266          18.536          19.265
  5990           8.995           1.040          12.562           4.648          19.298          18.568          19.297
  6000           8.995           1.040          12.562           4.656          19.330          18.601          19.329
  6010           8.995           1.040          12.562           4.664          19.362          18.633          19.361
  6020           8.995           1.040          12.562           4.671          19.394          18.665          19.393
  6030           8.995           1.040          12.562           4.679          19.426          18.697          19.426
  6040           8.995           1.040          12.562           4.687          19.459          18.729          19.458
  6050           8.995           1.040          12.562           4.695          19.491          18.761          19.490
  6060           8.995           1.040          12.562           4.703          19.523          18.794          19.522
  6070           8.995           1.040          12.562           4.710          19.555          18.826          19.554
  6080           8.995           1.040          12.562           4.718          19.587          18.858          19.587
  6090           8.995           1.040          12.562           4.726          19.620          18.890          19.619
  6100           8.995           1.040          12.562           4.734          19.652          18.922          19.651
  6110           8.995           1.040          12.562           4.741          19.684          18.955          19.683
  6120           8.995           1.040          12.562           4.749          19.716          18.987          19.715
  6130           8.995           1.040          12.562           4.757          19.748          19.019          19.747
  6140           8.995           1.040          12.562           4.765          19.780          19.051          19.780
  6150           8.995           1.040          12.562           4.772          19.813          19.083          19.812
  6160           8.995           1.040          12.562           4.780          19.845          19.115          19.844
  6170           8.995           1.040          12.562           4.788          19.877          19.148          19.876
  6180           8.995           1.040          12.562           4.796          19.909          19.180          19.908
  6190           8.995           1.040          12.562           4.803          19.941          19.212          19.940
  6200           8.995           1.040          12.562           4.811          19.974          19.244          19.973
  6210           8.995           1.040          12.562           4.819          20.006          19.276          20.005
  6220           8.995           1.040          12.562           4.827          20.038          19.309          20.037
  6230           8.995           1.040          12.562           4.834          20.070          19.341          20.069
  6240           8.995           1.040          12.563           4.842          20.102          19.373          20.101
  6250           8.995           1.040          12.563           4.850          20.134          19.405          20.134
  6260           8.995           1.040          12.563           4.858          20.167          19.437          20.166
  6270           8.995           1.040          12.563           4.865          20.199          19.469          20.198
  6280           8.995           1.040          12.563           4.873          20.231          19.502          20.230
  6290           8.995           1.040          12.563           4.881          20.263          19.534          20.262
  6300           8.995           1.040          12.563           4.889          20.295          19.566          20.294
  6310           8.995           1.040          12.563           4.896          20.328          19.598          20.327
  6320           8.995           1.040          12.563           4.904          20.360          19.630          20.359
  6330           8.995           1.040          12.563           4.912          20.392          19.662          20.391
  6340           8.995           1.040          12.563           4.920          20.424          19.695          20.423
  6350           8.995           1.040          12.563           4.927          20.456          19.727          20.455
  6360           8.995           1.040          12.563           4.935          20.488          19.759          20.488
  6370           8.995           1.040          12.563           4.943          20.521          19.791          20.520
  6380           8.996           1.040          12.563           4.951          20.553          19.823          20.552
  6390           8.996           1.040          12.563           4.958          20.585          19.856          20.584
  6400           8.996           1.040          12.563           4.966          20.617          19.888          20.616
  6410           8.996           1.040          12.563           4.974          20.649          19.920          20.648
  6420           8.996           1.040          12.563           4.982          20.681          19.952          20.681
  6430           8.996           1.040          12.563           4.989          20.714          19.984          20.713
  6440           8.996           1.040          12.563           4.997          20.746          20.016          20.745
  6450           8.996           1.040          12.563           5.005          20.778          20.049          20.777
  6460           8.996           1.040          12.563           5.013          20.810          20.081          20.809
  6470           8.996           1.040          12.563           5.020          20.842          20.113          20.842
  6480           8.996           1.040          12.563           5.028          20.875          20.145          20.874
  6490           8.996           1.040          12.563           5.036          20.907          20.177          20.906
  6500           8.996           1.040          12.563           5.044          20.939          20.210          20.938
  6510           8.996           1.040          12.563           5.051          20.971          20.242          20.970
  6520           8.996           1.040          12.563           5.059          21.003          20.274          21.003
  6530           8.996           1.040          12.563           5.067          21.035          20.306          21.035
  6540           8.996           1.040          12.563           5.075          21.068          20.338          21.067
  6550           8.996           1.040          12.563           5.082          21.100          20.370          21.099
  6560           8.996           1.040          12.563           5.090          21.132          20.403          21.131
  6570           8.996           1.040          12.563           5.098          21.164          20.435          21.163
  6580           8.996           1.040          12.563           5.106          21.196          20.467          21.196
  6590           8.996           1.040          12.563           5.113          21.229          20.499          21.228
  6600           8.996           1.040          12.563           5.121          21.261          20.531          21.260
  6610           8.996           1.040          12.563           5.129          21.293          20.564          21.292
  6620           8.996           1.040          12.563           5.137          21.325          20.596          21.324
  6630           8.996           1.040          12.563           5.144          21.357          20.628          21.357
  6640           8.996           1.040          12.563           5.152          21.389          20.660          21.389
  6650           8.996           1.040          12.563           5.160          21.422          20.692          21.421
  6660           8.996           1.040          12.563           5.168          21.454          20.724          21.453
  6670           8.996           1.040          12.563           5.175          21.486          20.757          21.485
  6680           8.996           1.040          12.563           5.183          21.518          20.789          21.517
  6690           8.996           1.040          12.563           5.191          21.550          20.821          21.550
  6700           8.996           1.040          12.563           5.199          21.583          20.853          21.582
  6710           8.996           1.040          12.563           5.206          21.615          20.885          21.614
  6720           8.996           1.040          12.563           5.214          21.647          20.918          21.646
  6730           8.996           1.040          12.563           5.222          21.679          20.950          21.678
  6740           8.996           1.040          12.563           5.230          21.711          20.982          21.711
  6750           8.996           1.040          12.564           5.237          21.744          21.014          21.743
  6760           8.996           1.040          12.564           5.245          21.776          21.046          21.775
  6770           8.996           1.040          12.564           5.253          21.808          21.078          21.807
  6780           8.996           1.040          12.564           5.261          21.840          21.111          21.839
  6790           8.996           1.040          12.564           5.268          21.872          21.143          21.871
  6800           8.996           1.040          12.564           5.276          21.904          21.175          21.904
  6810           8.996           1.040          12.564           5.284          21.937          21.207          21.936
  6820           8.996           1.040          12.564           5.292          21.969          21.239          21.968
  6830           8.996           1.040          12.564           5.299          22.001          21.272          22.000
  6840           8.996           1.040          12.564           5.307          22.033          21.304          22.032
  6850           8.996           1.040          12.564           5.315          22.065          21.336          22.065
  6860           8.996           1.040          12.564           5.323          22.098          21.368          22.097
  6870           8.996           1.040          12.564           5.330          22.130          21.400          22.129
  6880           8.996           1.040          12.564           5.338          22.162          21.433          22.161
  6890           8.996           1.040          12.564           5.346          22.194          21.465          22.193
  6900           8.996           1.040          12.564           5.354          22.226          21.497          22.225
  6910           8.996           1.040          12.564           5.361          22.258          21.529          22.258
  6920           8.996           1.040          12.564           5.369          22.291          21.561          22.290
  6930           8.996           1.040          12.564           5.377          22.323          21.593          22.322
  6940           8.996           1.040          12.564           5.385          22.355          21.626          22.354
  6950           8.996           1.040          12.564           5.392          22.387          21.658          22.386
  6960           8.996           1.040          12.564           5.400          22.419          21.690          22.419
  6970           8.996           1.040          12.564           5.408          22.452          21.722          22.451
  6980           8.996           1.040          12.564           5.416          22.484          21.754          22.483
  6990           8.996           1.040          12.564           5.423          22.516          21.787          22.515
  7000           8.996           1.040          12.564           5.431          22.548          21.819          22.547
  7010           8.996           1.040          12.564           5.439          22.580          21.851          22.580
  7020           8.996           1.040          12.564           5.447          22.612          21.883          22.612
  7030           8.996           1.040          12.564           5.454          22.645          21.915          22.644
  7040           8.996           1.040          12.564           5.462          22.677          21.947          22.676
  7050           8.996           1.040          12.564           5.470          22.709          21.980          22.708
  7060           8.996           1.040          12.564           5.478          22.741          22.012          22.740
  7070           8.996           1.040          12.564           5.485          22.773          22.044          22.773
  7080           8.996           1.040          12.564           5.493          22.806          22.076          22.805
  7090           8.996           1.040          12.564           5.501          22.838          22.108          22.837
  7100           8.996           1.040          12.564           5.509          22.870          22.141          22.869
  7110           8.996           1.040          12.564           5.516          22.902          22.173          22.901
  7120           8.996           1.040          12.564           5.524          22.934          22.205          22.934
  7130           8.996           1.040          12.564           5.532          22.966          22.237          22.966
  7140           8.996           1.040          12.564           5.540          22.999          22.269          22.998
  7150           8.996           1.040          12.564           5.547          23.031          22.301          23.030
  7160           8.996           1.040          12.564           5.555          23.063          22.334          23.062
  7170           8.996           1.040          12.564           5.563          23.095          22.366          23.094
  7180           8.996           1.040          12.564           5.571          23.127          22.398          23.127
  7190           8.996           1.040          12.564           5.578          23.160          22.430          23.159
  7200           8.996           1.040          12.564           5.586          23.192          22.462          23.191
  7210           8.996           1.040          12.564           5.594          23.224          22.495          23.223
  7220           8.996           1.040          12.564           5.602          23.256          22.527          23.255
  7230           8.997           1.040          12.564           5.609          23.288          22.559          23.288
  7240           8.997           1.040          12.564           5.617          23.321          22.591          23.320
  7250           8.997           1.040          12.564           5.625          23.353          22.623          23.352
  7260           8.997           1.040          12.564           5.633          23.385          22.655          23.384
  7270           8.997           1.040          12.564           5.640          23.417          22.688          23.416
  7280           8.997           1.040          12.564           5.648          23.449          22.720          23.449
  7290           8.997           1.040          12.564           5.656          23.481          22.752          23.481
  7300           8.997           1.040          12.564           5.664          23.514          22.784          23.513
  7310           8.997           1.040          12.564           5.672          23.546          22.816          23.545
  7320           8.997           1.040          12.564           5.679          23.578          22.849          23.577
  7330           8.997           1.040          12.564           5.687          23.610          22.881          23.609
  7340           8.997           1.040          12.564           5.695          23.642          22.913          23.642
  7350           8.997           1.040          12.564           5.703          23.675          22.945          23.674
  7360           8.997           1.040          12.564           5.710          23.707          22.977          23.706
  7370           8.997           1.040          12.564           5.718          23.739          23.010          23.738
  7380           8.997           1.040          12.564           5.726          23.771          23.042          23.770
  7390           8.997           1.040          12.564           5.734          23.803          23.074          23.803
  7400           8.997           1.040          12.564           5.741          23.835          23.106          23.835
  7410           8.997           1.040          12.564           5.749          23.868          23.138          23.867
  7420           8.997           1.040          12.565           5.757          23.900          23.170          23.899
  7430           8.997           1.040          12.565           5.765          23.932          23.203          23.931
  7440           8.997           1.040          12.565           5.772          23.964          23.235          23.963
  7450           8.997           1.040          12.565           5.780          23.996          23.267          23.996
  7460           8.997           1.040          12.565           5.788          24.029          23.299          24.028
  7470           8.997           1.040          12.565           5.796          24.061          23.331          24.060
  7480           8.997           1.040          12.565           5.803          24.093          23.364          24.092
  7490           8.997           1.040          12.565           5.811          24.125          23.396          24.124
  7500           8.997           1.040          12.565           5.819          24.157          23.428          24.157
  7510           8.997           1.040          12.565           5.827          24.190          23.460          24.189
  7520           8.997           1.040          12.565           5.834          24.222          23.492          24.221
  7530           8.997           1.040          12.565           5.842          24.254          23.524          24.253
  7540           8.997           1.040          12.565           5.850          24.286          23.557          24.285
  7550           8.997           1.040          12.565           5.858          24.318          23.589          24.318
  7560           8.997           1.040          12.565           5.865          24.350          23.621          24.350
  7570           8.997           1.040          12.565           5.873          24.383          23.653          24.382
  7580           8.997           1.040          12.565           5.881          24.415          23.685          24.414
  7590           8.997           1.040          12.565           5.889          24.447          23.718          24.446
  7600           8.997           1.040          12.565           5.896          24.479          23.750          24.478
  7610           8.997           1.040          12.565           5.904          24.511          23.782          24.511
  7620           8.997           1.040          12.565           5.912          24.544          23.814          24.543
  7630           8.997           1.040          12.565           5.920          24.576          23.846          24.575
  7640           8.997           1.040          12.565           5.927          24.608          23.879          24.607
  7650           8.997           1.040          12.565           5.935          24.640          23.911          24.639
  7660           8.997           1.040          12.565           5.943          24.672          23.943          24.672
  7670           8.997           1.040          12.565           5.951          24.704          23.975          24.704
  7680           8.997           1.040          12.565           5.958          24.737          24.007          24.736
  7690           8.997           1.040          12.565           5.966          24.769          24.039          24.768
  7700           8.997           1.040          12.565           5.974          24.801          24.072          24.800
  7710           8.997           1.040          12.565           5.982          24.833          24.104          24.833
  7720           8.997           1.040          12.565           5.989          24.865          24.136          24.865
  7730           8.997           1.040          12.565           5.997          24.898          24.168          24.897
  7740           8.997           1.040          12.565           6.005          24.930          24.200          24.929
  7750           8.997           1.040          12.565           6.013          24.962          24.233          24.961
  7760           8.997           1.040          12.565           6.020          24.994          24.265          24.993
  7770           8.997           1.040          12.565           6.028          25.026          24.297          25.026
  7780           8.997           1.040          12.565           6.036          25.059          24.329          25.058
  7790           8.997           1.040          12.565           6.044          25.091          24.361          25.090
  7800           8.997           1.040          12.565           6.051          25.123          24.394          25.122
  7810           8.997           1.040          12.565           6.059          25.155          24.426          25.154
  7820           8.997           1.040          12.565           6.067          25.187          24.458          25.187
  7830           8.997           1.040          12.565           6.075          25.219          24.490          25.219
  7840           8.997           1.040          12.565           6.082          25.252          24.522          25.251
  7850           8.997           1.040          12.565           6.090          25.284          24.554          25.283
  7860           8.997           1.040          12.565           6.098          25.316          24.587          25.315
  7870           8.997           1.040          12.565           6.106          25.348          24.619          25.348
  7880           8.997           1.040          12.565           6.113          25.380          24.651          25.380
  7890           8.997           1.040          12.565           6.121          25.413          24.683          25.412
  7900           8.997           1.040          12.565           6.129          25.445          24.715          25.444
  7910           8.997           1.040          12.565           6.137          25.477          24.748          25.476
  7920           8.997           1.040          12.565           6.144          25.509          24.780          25.508
  7930           8.997           1.040          12.565           6.152          25.541          24.812          25.541
  7940           8.997           1.040          12.565           6.160          25.574          24.844          25.573
  7950           8.997           1.040          12.565           6.168          25.606          24.876          25.605
  7960           8.997           1.040          12.565           6.175          25.638          24.909          25.637
  7970           8.997           1.040          12.565           6.183          25.670          24.941          25.669
  7980           8.997           1.040          12.565           6.191          25.702          24.973          25.702
  7990           8.997           1.040          12.565           6.199          25.734          25.005          25.734
  8000           8.997           1.040          12.565           6.206          25.767          25.037          25.766
  8010           8.997           1.040          12.565           6.214          25.799          25.069          25.798
  8020           8.997           1.040          12.565           6.222          25.831          25.102          25.830
  8030           8.997           1.040          12.565           6.230          25.863          25.134          25.863
  8040           8.997           1.040          12.565           6.237          25.895          25.166          25.895
  8050           8.997           1.040          12.565           6.245          25.928          25.198          25.927
  8060           8.997           1.040          12.565           6.253          25.960          25.230          25.959
  8070           8.997           1.040          12.565           6.261          25.992          25.263          25.991
  8080           8.997           1.040          12.565           6.268          26.024          25.295          26.023
  8090           8.997           1.040          12.565           6.276          26.056          25.327          26.056
  8100           8.997           1.040          12.565           6.284          26.089          25.359          26.088
  8110           8.997           1.040          12.565           6.292          26.121          25.391          26.120
  8120           8.997           1.040          12.565           6.299          26.153          25.424          26.152
  8130           8.997           1.040          12.565           6.307          26.185          25.456          26.184
  8140           8.997           1.040          12.565           6.315          26.217          25.488          26.217
  8150           8.997           1.040          12.565           6.323          26.249          25.520          26.249
  8160           8.997           1.040          12.565           6.331          26.282          25.552          26.281
  8170           8.997           1.040          12.565           6.338          26.314          25.584          26.313
  8180           8.997           1.040          12.565           6.346          26.346          25.617          26.345
  8190           8.997           1.040          12.565           6.354          26.378          25.649          26.378
  8200           8.997           1.040          12.565           6.362          26.410          25.681          26.410
  8210           8.997           1.040          12.565           6.369          26.443          25.713          26.442
  8220           8.997           1.040          12.565           6.377          26.475          25.745          26.474
  8230           8.997           1.040          12.565           6.385          26.507          25.778          26.506
  8240           8.997           1.040          12.565           6.393          26.539          25.810          26.538
  8250           8.997           1.040          12.565           6.400          26.571          25.842          26.571
  8260           8.997           1.040          12.565           6.408          26.604          25.874          26.603
  8270           8.997           1.040          12.565           6.416          26.636          25.906          26.635
  8280           8.997           1.040          12.565           6.424          26.668          25.939          26.667
  8290           8.997           1.040          12.565           6.431          26.700          25.971          26.699
  8300           8.997           1.040          12.565           6.439          26.732          26.003          26.732
  8310           8.997           1.040          12.565           6.447          26.764          26.035          26.764
  8320           8.997           1.040          12.565           6.455          26.797          26.067          26.796
  8330           8.997           1.040          12.566           6.462          26.829          26.099          26.828
  8340           8.997           1.040          12.566           6.470          26.861          26.132          26.860
  8350           8.997           1.040          12.566           6.478          26.893          26.164          26.893
  8360           8.997           1.040          12.566           6.486          26.925          26.196          26.925
  8370           8.997           1.040          12.566           6.493          26.958          26.228          26.957
  8380           8.997           1.040          12.566           6.501          26.990          26.260          26.989
  8390           8.997           1.040          12.566           6.509          27.022          26.293          27.021
  8400           8.997           1.040          12.566           6.517          27.054          26.325          27.054
  8410           8.997           1.040          12.566           6.524          27.086          26.357          27.086
  8420           8.997           1.040          12.566           6.532          27.119          26.389          27.118
  8430           8.997           1.040          12.566           6.540          27.151          26.421          27.150
  8440           8.997           1.040          12.566           6.548          27.183          26.454          27.182
  8450           8.997           1.040          12.566           6.555          27.215          26.486          27.214
  8460           8.997           1.040          12.566           6.563          27.247          26.518          27.247
  8470           8.997           1.040          12.566           6.571          27.279          26.550          27.279
  8480           8.997           1.040          12.566           6.579          27.312          26.582          27.311
  8490           8.997           1.040          12.566           6.586          27.344          26.614          27.343
  8500           8.997           1.040          12.566           6.594          27.376          26.647          27.375
  8510           8.997           1.040          12.566           6.602          27.408          26.679          27.408
  8520           8.997           1.040          12.566           6.610          27.440          26.711          27.440
  8530           8.997           1.040          12.566           6.617          27.473          26.743          27.472
  8540           8.997           1.040          12.566           6.625          27.505          26.775          27.504
  8550           8.997           1.040          12.566           6.633          27.537          26.808          27.536
  8560           8.998           1.040          12.566           6.641          27.569          26.840          27.569
  8570           8.998           1.040          12.566           6.648          27.601          26.872          27.601
  8580           8.998           1.040          12.566           6.656          27.634          26.904          27.633
  8590           8.998           1.040          12.566           6.664          27.666          26.936          27.665
  8600           8.998           1.040          12.566           6.672          27.698          26.969          27.697
  8610           8.998           1.040          12.566           6.679          27.730          27.001          27.729
  8620           8.998           1.040          12.566           6.687          27.762          27.033          27.762
  8630           8.998           1.040          12.566           6.695          27.794          27.065          27.794
  8640           8.998           1.040          12.566           6.703          27.827          27.097          27.826
  8650           8.998           1.040          12.566           6.710          27.859          27.129          27.858
  8660           8.998           1.040          12.566           6.718          27.891          27.162          27.890
  8670           8.998           1.040          12.566           6.726          27.923          27.194          27.923
  8680           8.998           1.040          12.566           6.734          27.955          27.226          27.955
  8690           8.998           1.040          12.566           6.741          27.988          27.258          27.987
  8700           8.998           1.040          12.566           6.749          28.020          27.290          28.019
  8710           8.998           1.040          12.566           6.757          28.052          27.323          28.051
  8720           8.998           1.040          12.566           6.765          28.084          27.355          28.084
  8730           8.998           1.040          12.566           6.772          28.116          27.387          28.116
  8740           8.998           1.040          12.566           6.780          28.149          27.419          28.148
  8750           8.998           1.040          12.566           6.788          28.181          27.451          28.180
  8760           8.998           1.040          12.566           6.796          28.213          27.484          28.212
  8770           8.998           1.040          12.566           6.803          28.245          27.516          28.245
  8780           8.998           1.040          12.566           6.811          28.277          27.548          28.277
  8790           8.998           1.040          12.566           6.819          28.309          27.580          28.309
  8800           8.998           1.040          12.566           6.827          28.342          27.612          28.341
  8810           8.998           1.040          12.566           6.834          28.374          27.644          28.373
  8820           8.998           1.040          12.566           6.842          28.406          27.677          28.405
  8830           8.998           1.040          12.566           6.850          28.438          27.709          28.438
  8840           8.998           1.040          12.566           6.858          28.470          27.741          28.470
  8850           8.998           1.040          12.566           6.865          28.503          27.773          28.502
  8860           8.998           1.040          12.566           6.873          28.535          27.805          28.534
  8870           8.998           1.040          12.566           6.881          28.567          27.838          28.566
  8880           8.998           1.040          12.566           6.889          28.599          27.870          28.599
  8890           8.998           1.040          12.566           6.897          28.631          27.902          28.631
  8900           8.998           1.040          12.566           6.904          28.664          27.934          28.663
  8910           8.998           1.040          12.566           6.912          28.696          27.966          28.695
  8920           8.998           1.040          12.566           6.920          28.728          27.999          28.727
  8930           8.998           1.040          12.566           6.928          28.760          28.031          28.760
  8940           8.998           1.040          12.566           6.935          28.792          28.063          28.792
  8950           8.998           1.040          12.566           6.943          28.825          28.095          28.824
  8960           8.998           1.040          12.566           6.951          28.857          28.127          28.856
  8970           8.998           1.040          12.566           6.959          28.889          28.160          28.888
  8980           8.998           1.040          12.566           6.966          28.921          28.192          28.920
  8990           8.998           1.040          12.566           6.974          28.953          28.224          28.953
  9000           8.998           1.040          12.566           6.982          28.985          28.256          28.985
  9010           8.998           1.040          12.566           6.990          29.018          28.288          29.017
  9020           8.998           1.040          12.566           6.997          29.050          28.320          29.049
  9030           8.998           1.040          12.566           7.005          29.082          28.353          29.081
  9040           8.998           1.040          12.566           7.013          29.114          28.385          29.114
  9050           8.998           1.040          12.566           7.021          29.146          28.417          29.146
  9060           8.998           1.040          12.566           7.028          29.179          28.449          29.178
  9070           8.998           1.040          12.566           7.036          29.211          28.481          29.210
  9080           8.998           1.040          12.566           7.044          29.243          28.514          29.242
  9090           8.998           1.040          12.566           7.052          29.275          28.546          29.275
  9100           8.998           1.040          12.566           7.059          29.307          28.578          29.307
  9110           8.998           1.040          12.566           7.067          29.340          28.610          29.339
  9120           8.998           1.040          12.566           7.075          29.372          28.642          29.371
  9130           8.998           1.040          12.566           7.083          29.404          28.675          29.403
  9140           8.998           1.040          12.566           7.090          29.436          28.707          29.436
  9150           8.998           1.040          12.566           7.098          29.468          28.739          29.468
  9160           8.998           1.040          12.566           7.106          29.500          28.771          29.500
  9170           8.998           1.040          12.566           7.114          29.533          28.803          29.532
  9180           8.998           1.040          12.566           7.121          29.565          28.835          29.564
  9190           8.998           1.040          12.566           7.129          29.597          28.868          29.596
  9200           8.998           1.040          12.566           7.137          29.629          28.900          29.629
  9210           8.998           1.040          12.566           7.145          29.661          28.932          29.661
  9220           8.998           1.040          12.566           7.152          29.694          28.964          29.693
  9230           8.998           1.040          12.566           7.160          29.726          28.996          29.725
  9240           8.998           1.040          12.566           7.168          29.758          29.029          29.757
  9250           8.998           1.040          12.566           7.176          29.790          29.061          29.790
  9260           8.998           1.040          12.566           7.183          29.822          29.093          29.822
  9270           8.998           1.040          12.566           7.191          29.855          29.125          29.854
  9280           8.998           1.040          12.566           7.199          29.887          29.157          29.886
  9290           8.998           1.040          12.566           7.207          29.919          29.190          29.918
  9300           8.998           1.040          12.566           7.214          29.951          29.222          29.951
  9310           8.998           1.040          12.566           7.222          29.983          29.254          29.983
  9320           8.998           1.040          12.566           7.230          30.016          29.286          30.015
  9330           8.998           1.040          12.566           7.238          30.048          29.318          30.047
  9340           8.998           1.040          12.566           7.245          30.080          29.351          30.079
  9350           8.998           1.040          12.566           7.253          30.112          29.383          30.112
  9360           8.998           1.040          12.566           7.261          30.144          29.415          30.144
  9370           8.998           1.040          12.566           7.269          30.176          29.447          30.176
  9380           8.998           1.040          12.566           7.276          30.209          29.479          30.208
  9390           8.998           1.040          12.566           7.284          30.241          29.511          30.240
  9400           8.998           1.040          12.566           7.292          30.273          29.544          30.272
  9410           8.998           1.040          12.566           7.300          30.305          29.576          30.305
  9420           8.998           1.040          12.566           7.307          30.337          29.608          30.337
  9430           8.998           1.040          12.566           7.315          30.370          29.640          30.369
  9440           8.998           1.040          12.566           7.323          30.402          29.672          30.401
  9450           8.998           1.040          12.566           7.331          30.434          29.705          30.433
  9460           8.998           1.040          12.566           7.338          30.466          29.737          30.466
  9470           8.998           1.040          12.566           7.346          30.498          29.769          30.498
  9480           8.998           1.040          12.566           7.354          30.531          29.801          30.530
  9490           8.998           1.040          12.566           7.362          30.563          29.833          30.562
  9500           8.998           1.040          12.566           7.369          30.595          29.866          30.594
  9510           8.998           1.040          12.566           7.377          30.627          29.898          30.627
  9520           8.998           1.040          12.566           7.385          30.659          29.930          30.659
  9530           8.998           1.040          12.566           7.393          30.692          29.962          30.691
  9540           8.998           1.040          12.566           7.401          30.724          29.994          30.723
  9550           8.998           1.040          12.566           7.408          30.756          30.027          30.755
  9560           8.998           1.040          12.566           7.416          30.788          30.059          30.788
  9570           8.998           1.040          12.566           7.424          30.820          30.091          30.820
  9580           8.998           1.040          12.566           7.432          30.852          30.123          30.852
  9590           8.998           1.040          12.566           7.439          30.885          30.155          30.884
  9600           8.998           1.040          12.566           7.447          30.917          30.187          30.916
  9610           8.998           1.040          12.566           7.455          30.949          30.220          30.948
  9620           8.998           1.040          12.566           7.463          30.981          30.252          30.981
  9630           8.998           1.040          12.566           7.470          31.013          30.284          31.013
  9640           8.998           1.040          12.566           7.478          31.046          30.316          31.045
  9650           8.998           1.040          12.566           7.486          31.078          30.348          31.077
  9660           8.998           1.040          12.566           7.494          31.110          30.381          31.109
  9670           8.998           1.040          12.566           7.501          31.142          30.413          31.142
  9680           8.998           1.040          12.566           7.509          31.174          30.445          31.174
  9690           8.998           1.040          12.567           7.517          31.207          30.477          31.206
  9700           8.998           1.040          12.567           7.525          31.239          30.509          31.238
  9710           8.998           1.040          12.567           7.532          31.271          30.542          31.270
  9720           8.998           1.040          12.567           7.540          31.303          30.574          31.303
  9730           8.998           1.040          12.567           7.548          31.335          30.606          31.335
  9740           8.998           1.040          12.567           7.556          31.368          30.638          31.367
  9750           8.998           1.040          12.567           7.563          31.400          30.670          31.399
  9760           8.998           1.040          12.567           7.571          31.432          30.703          31.431
  9770           8.998           1.040          12.567           7.579          31.464          30.735          31.464
  9780           8.998           1.040          12.567           7.587          31.496          30.767          31.496
  9790           8.998           1.040          12.567           7.594          31.528          30.799          31.528
  9800           8.998           1.040          12.567           7.602          31.561          30.831          31.560
  9810           8.998           1.040          12.567           7.610          31.593          30.863          31.592
  9820           8.998           1.040          12.567           7.618          31.625          30.896          31.624
  9830           8.998           1.040          12.567           7.625          31.657          30.928          31.657
  9840           8.998           1.040          12.567           7.633          31.689          30.960          31.689
  9850           8.998           1.040          12.567           7.641          31.722          30.992          31.721
  9860           8.998           1.040          12.567           7.649          31.754          31.024          31.753
  9870           8.998           1.040          12.567           7.656          31.786          31.057          31.785
  9880           8.998           1.040          12.567           7.664          31.818          31.089          31.818
  9890           8.998           1.040          12.567           7.672          31.850          31.121          31.850
  9900           8.998           1.040          12.567           7.680          31.883          31.153          31.882
  9910           8.998           1.040          12.567           7.687          31.915          31.185          31.914
  9920           8.998           1.040          12.567           7.695          31.947          31.218          31.946
  9930           8.998           1.040          12.567           7.703          31.979          31.250          31.979
  9940           8.998           1.040          12.567           7.711          32.011          31.282          32.011
  9950           8.998           1.040          12.567           7.718          32.044          31.314          32.043
  9960           8.998           1.040          12.567           7.726          32.076          31.346          32.075
  9970           8.998           1.040          12.567           7.734          32.108          31.379          32.107
  9980           8.998           1.040          12.567           7.742          32.140          31.409          32.140
  9990           8.998           1.040          12.567           7.749          32.172          31.447          32.172
 10000           8.998           1.040          12.567           7.757          32.204          31.459          32.204
