#   T(K)    C_v(k_B/fu)        Gamma     alpha_v*10^6(K^-1)   E_th(eV)                       P_th(GPa)
#                                                                         ----------------------------------------------
#                                                                          {sum G_i.U_iV}  {int G.C_v/V dT}    {G.U/V}
# ----------------------------------------------------------------------------------------------------------------------
    10           0.000           0.575           0.000           0.161           1.999           0.000           1.052
    20           0.003           0.614           0.001           0.161           1.999           0.000           1.124
    30           0.014           0.649           0.007           0.161           1.999           0.000           1.188
    40           0.041           0.690           0.022           0.161           1.999           0.000           1.263
    50           0.094           0.728           0.052           0.161           1.999           0.001           1.333
    60           0.181           0.760           0.105           0.161           2.000           0.002           1.393
    70           0.305           0.787           0.183           0.162           2.002           0.005           1.444
    80           0.461           0.811           0.286           0.162           2.005           0.008           1.490
    90           0.645           0.831           0.410           0.162           2.010           0.014           1.533
   100           0.848           0.850           0.552           0.163           2.016           0.021           1.573
   110           1.064           0.866           0.707           0.164           2.024           0.030           1.612
   120           1.288           0.882           0.870           0.165           2.034           0.041           1.650
   130           1.514           0.895           1.039           0.166           2.046           0.054           1.688
   140           1.738           0.907           1.210           0.167           2.060           0.070           1.725
   150           1.958           0.918           1.380           0.169           2.077           0.087           1.763
   160           2.172           0.928           1.547           0.171           2.096           0.107           1.800
   170           2.377           0.937           1.710           0.173           2.116           0.129           1.838
   180           2.574           0.945           1.866           0.175           2.139           0.152           1.876
   190           2.760           0.952           2.017           0.177           2.164           0.178           1.915
   200           2.937           0.958           2.160           0.180           2.191           0.206           1.955
   210           3.103           0.964           2.297           0.182           2.219           0.235           1.995
   220           3.260           0.969           2.426           0.185           2.249           0.266           2.035
   230           3.407           0.973           2.547           0.188           2.281           0.298           2.077
   240           3.545           0.977           2.662           0.191           2.314           0.332           2.119
   250           3.675           0.981           2.770           0.194           2.349           0.368           2.162
   260           3.796           0.985           2.871           0.197           2.385           0.404           2.205
   270           3.909           0.988           2.966           0.200           2.422           0.442           2.250
   280           4.015           0.991           3.056           0.204           2.460           0.481           2.294
   290           4.114           0.993           3.139           0.207           2.500           0.521           2.340
   300           4.207           0.995           3.218           0.211           2.540           0.562           2.386
   310           4.293           0.998           3.292           0.215           2.582           0.604           2.433
   320           4.375           1.000           3.361           0.218           2.624           0.647           2.480
   330           4.451           1.001           3.426           0.222           2.667           0.690           2.528
   340           4.522           1.003           3.487           0.226           2.711           0.735           2.576
   350           4.589           1.005           3.544           0.230           2.756           0.780           2.625
   360           4.652           1.006           3.598           0.234           2.801           0.826           2.674
   370           4.711           1.008           3.648           0.238           2.848           0.872           2.724
   380           4.767           1.009           3.696           0.242           2.894           0.919           2.774
   390           4.819           1.010           3.741           0.246           2.942           0.967           2.825
   400           4.868           1.011           3.783           0.250           2.990           1.015           2.876
   410           4.915           1.012           3.823           0.255           3.038           1.064           2.927
   420           4.959           1.013           3.861           0.259           3.087           1.113           2.979
   430           5.000           1.014           3.897           0.263           3.136           1.163           3.031
   440           5.039           1.015           3.930           0.267           3.186           1.213           3.083
   450           5.076           1.015           3.962           0.272           3.237           1.263           3.136
   460           5.111           1.016           3.992           0.276           3.287           1.314           3.189
   470           5.144           1.017           4.021           0.281           3.338           1.365           3.242
   480           5.175           1.018           4.048           0.285           3.390           1.417           3.295
   490           5.205           1.018           4.074           0.290           3.441           1.469           3.349
   500           5.233           1.019           4.098           0.294           3.493           1.521           3.403
   510           5.260           1.019           4.121           0.299           3.546           1.573           3.457
   520           5.285           1.020           4.143           0.303           3.598           1.626           3.512
   530           5.310           1.020           4.164           0.308           3.651           1.679           3.566
   540           5.333           1.021           4.184           0.312           3.704           1.732           3.621
   550           5.354           1.021           4.203           0.317           3.758           1.786           3.676
   560           5.375           1.022           4.222           0.322           3.811           1.840           3.731
   570           5.395           1.022           4.239           0.326           3.865           1.894           3.786
   580           5.414           1.022           4.255           0.331           3.919           1.948           3.842
   590           5.433           1.023           4.271           0.335           3.974           2.002           3.898
   600           5.450           1.023           4.286           0.340           4.028           2.057           3.953
   610           5.466           1.023           4.301           0.345           4.083           2.111           4.009
   620           5.482           1.024           4.315           0.350           4.138           2.166           4.065
   630           5.498           1.024           4.328           0.354           4.193           2.222           4.122
   640           5.512           1.024           4.340           0.359           4.248           2.277           4.178
   650           5.526           1.025           4.353           0.364           4.303           2.332           4.234
   660           5.539           1.025           4.364           0.369           4.359           2.388           4.291
   670           5.552           1.025           4.375           0.373           4.414           2.443           4.348
   680           5.565           1.025           4.386           0.378           4.470           2.499           4.404
   690           5.576           1.025           4.396           0.383           4.526           2.555           4.461
   700           5.588           1.026           4.406           0.388           4.582           2.611           4.518
   710           5.599           1.026           4.416           0.393           4.638           2.668           4.575
   720           5.609           1.026           4.425           0.397           4.695           2.724           4.632
   730           5.619           1.026           4.434           0.402           4.751           2.780           4.690
   740           5.629           1.026           4.442           0.407           4.807           2.837           4.747
   750           5.638           1.027           4.450           0.412           4.864           2.894           4.805
   760           5.647           1.027           4.458           0.417           4.921           2.950           4.862
   770           5.656           1.027           4.466           0.422           4.978           3.007           4.920
   780           5.664           1.027           4.473           0.427           5.035           3.064           4.977
   790           5.672           1.027           4.480           0.431           5.092           3.121           5.035
   800           5.680           1.027           4.487           0.436           5.149           3.178           5.093
   810           5.688           1.028           4.493           0.441           5.206           3.236           5.151
   820           5.695           1.028           4.500           0.446           5.263           3.293           5.209
   830           5.702           1.028           4.506           0.451           5.320           3.350           5.267
   840           5.709           1.028           4.512           0.456           5.378           3.408           5.325
   850           5.715           1.028           4.518           0.461           5.435           3.465           5.383
   860           5.722           1.028           4.523           0.466           5.493           3.523           5.441
   870           5.728           1.028           4.528           0.471           5.550           3.581           5.499
   880           5.734           1.028           4.534           0.476           5.608           3.638           5.558
   890           5.739           1.029           4.539           0.481           5.666           3.696           5.616
   900           5.745           1.029           4.543           0.486           5.724           3.754           5.674
   910           5.750           1.029           4.548           0.491           5.782           3.812           5.733
   920           5.756           1.029           4.553           0.495           5.840           3.870           5.791
   930           5.761           1.029           4.557           0.500           5.898           3.928           5.850
   940           5.766           1.029           4.561           0.505           5.956           3.986           5.908
   950           5.770           1.029           4.566           0.510           6.014           4.044           5.967
   960           5.775           1.029           4.570           0.515           6.072           4.102           6.025
   970           5.779           1.029           4.574           0.520           6.130           4.160           6.084
   980           5.784           1.029           4.577           0.525           6.188           4.219           6.143
   990           5.788           1.029           4.581           0.530           6.247           4.277           6.202
  1000           5.792           1.030           4.585           0.535           6.305           4.335           6.260
  1010           5.796           1.030           4.588           0.540           6.363           4.394           6.319
  1020           5.800           1.030           4.591           0.545           6.422           4.452           6.378
  1030           5.804           1.030           4.595           0.550           6.480           4.511           6.437
  1040           5.807           1.030           4.598           0.555           6.539           4.569           6.496
  1050           5.811           1.030           4.601           0.560           6.597           4.628           6.555
  1060           5.814           1.030           4.604           0.565           6.656           4.687           6.614
  1070           5.818           1.030           4.607           0.570           6.715           4.745           6.673
  1080           5.821           1.030           4.610           0.575           6.773           4.804           6.732
  1090           5.824           1.030           4.613           0.580           6.832           4.863           6.791
  1100           5.827           1.030           4.615           0.585           6.891           4.921           6.850
  1110           5.830           1.030           4.618           0.590           6.950           4.980           6.910
  1120           5.833           1.030           4.621           0.595           7.008           5.039           6.969
  1130           5.836           1.030           4.623           0.600           7.067           5.098           7.028
  1140           5.839           1.030           4.626           0.605           7.126           5.157           7.087
  1150           5.842           1.030           4.628           0.611           7.185           5.216           7.146
  1160           5.844           1.030           4.630           0.616           7.244           5.275           7.206
  1170           5.847           1.031           4.633           0.621           7.303           5.334           7.265
  1180           5.849           1.031           4.635           0.626           7.362           5.393           7.324
  1190           5.852           1.031           4.637           0.631           7.421           5.452           7.384
  1200           5.854           1.031           4.639           0.636           7.480           5.511           7.443
  1210           5.857           1.031           4.641           0.641           7.539           5.570           7.502
  1220           5.859           1.031           4.643           0.646           7.598           5.629           7.562
  1230           5.861           1.031           4.645           0.651           7.657           5.688           7.621
  1240           5.863           1.031           4.647           0.656           7.716           5.747           7.681
  1250           5.866           1.031           4.649           0.661           7.776           5.806           7.740
  1260           5.868           1.031           4.651           0.666           7.835           5.866           7.800
  1270           5.870           1.031           4.653           0.671           7.894           5.925           7.859
  1280           5.872           1.031           4.654           0.676           7.953           5.984           7.919
  1290           5.874           1.031           4.656           0.681           8.013           6.043           7.978
  1300           5.876           1.031           4.658           0.686           8.072           6.103           8.038
  1310           5.877           1.031           4.659           0.691           8.131           6.162           8.097
  1320           5.879           1.031           4.661           0.696           8.191           6.221           8.157
  1330           5.881           1.031           4.662           0.701           8.250           6.281           8.217
  1340           5.883           1.031           4.664           0.707           8.309           6.340           8.276
  1350           5.884           1.031           4.665           0.712           8.369           6.400           8.336
  1360           5.886           1.031           4.667           0.717           8.428           6.459           8.395
  1370           5.888           1.031           4.668           0.722           8.487           6.518           8.455
  1380           5.889           1.031           4.670           0.727           8.547           6.578           8.515
  1390           5.891           1.031           4.671           0.732           8.606           6.637           8.574
  1400           5.892           1.031           4.672           0.737           8.666           6.697           8.634
  1410           5.894           1.031           4.674           0.742           8.725           6.756           8.694
  1420           5.895           1.031           4.675           0.747           8.785           6.816           8.754
  1430           5.897           1.031           4.676           0.752           8.844           6.875           8.813
  1440           5.898           1.031           4.677           0.757           8.904           6.935           8.873
  1450           5.900           1.031           4.679           0.762           8.964           6.995           8.933
  1460           5.901           1.031           4.680           0.767           9.023           7.054           8.993
  1470           5.902           1.032           4.681           0.773           9.083           7.114           9.053
  1480           5.904           1.032           4.682           0.778           9.142           7.173           9.112
  1490           5.905           1.032           4.683           0.783           9.202           7.233           9.172
  1500           5.906           1.032           4.684           0.788           9.262           7.293           9.232
  1510           5.907           1.032           4.685           0.793           9.321           7.352           9.292
  1520           5.909           1.032           4.687           0.798           9.381           7.412           9.352
  1530           5.910           1.032           4.688           0.803           9.441           7.472           9.412
  1540           5.911           1.032           4.689           0.808           9.500           7.531           9.471
  1550           5.912           1.032           4.690           0.813           9.560           7.591           9.531
  1560           5.913           1.032           4.691           0.818           9.620           7.651           9.591
  1570           5.914           1.032           4.691           0.823           9.679           7.710           9.651
  1580           5.915           1.032           4.692           0.829           9.739           7.770           9.711
  1590           5.916           1.032           4.693           0.834           9.799           7.830           9.771
  1600           5.917           1.032           4.694           0.839           9.859           7.890           9.831
  1610           5.918           1.032           4.695           0.844           9.918           7.950           9.891
  1620           5.919           1.032           4.696           0.849           9.978           8.009           9.951
  1630           5.920           1.032           4.697           0.854          10.038           8.069          10.011
  1640           5.921           1.032           4.698           0.859          10.098           8.129          10.071
  1650           5.922           1.032           4.699           0.864          10.158           8.189          10.131
  1660           5.923           1.032           4.699           0.869          10.217           8.249          10.191
  1670           5.924           1.032           4.700           0.874          10.277           8.308          10.251
  1680           5.925           1.032           4.701           0.880          10.337           8.368          10.311
  1690           5.926           1.032           4.702           0.885          10.397           8.428          10.371
  1700           5.927           1.032           4.702           0.890          10.457           8.488          10.431
  1710           5.928           1.032           4.703           0.895          10.517           8.548          10.491
  1720           5.928           1.032           4.704           0.900          10.577           8.608          10.551
  1730           5.929           1.032           4.705           0.905          10.637           8.668          10.611
  1740           5.930           1.032           4.705           0.910          10.696           8.728          10.671
  1750           5.931           1.032           4.706           0.915          10.756           8.788          10.731
  1760           5.932           1.032           4.707           0.920          10.816           8.847          10.791
  1770           5.932           1.032           4.707           0.926          10.876           8.907          10.851
  1780           5.933           1.032           4.708           0.931          10.936           8.967          10.911
  1790           5.934           1.032           4.709           0.936          10.996           9.027          10.971
  1800           5.935           1.032           4.709           0.941          11.056           9.087          11.031
  1810           5.935           1.032           4.710           0.946          11.116           9.147          11.092
  1820           5.936           1.032           4.711           0.951          11.176           9.207          11.152
  1830           5.937           1.032           4.711           0.956          11.236           9.267          11.212
  1840           5.937           1.032           4.712           0.961          11.296           9.327          11.272
  1850           5.938           1.032           4.712           0.966          11.356           9.387          11.332
  1860           5.939           1.032           4.713           0.972          11.416           9.447          11.392
  1870           5.939           1.032           4.713           0.977          11.476           9.507          11.452
  1880           5.940           1.032           4.714           0.982          11.536           9.567          11.512
  1890           5.941           1.032           4.715           0.987          11.596           9.627          11.573
  1900           5.941           1.032           4.715           0.992          11.656           9.687          11.633
  1910           5.942           1.032           4.716           0.997          11.716           9.747          11.693
  1920           5.942           1.032           4.716           1.002          11.776           9.807          11.753
  1930           5.943           1.032           4.717           1.007          11.836           9.867          11.813
  1940           5.944           1.032           4.717           1.013          11.896           9.927          11.873
  1950           5.944           1.032           4.718           1.018          11.956           9.988          11.934
  1960           5.945           1.032           4.718           1.023          12.016          10.048          11.994
  1970           5.945           1.032           4.719           1.028          12.076          10.108          12.054
  1980           5.946           1.032           4.719           1.033          12.136          10.168          12.114
  1990           5.946           1.032           4.720           1.038          12.197          10.228          12.174
  2000           5.947           1.032           4.720           1.043          12.257          10.288          12.235
  2010           5.947           1.032           4.721           1.048          12.317          10.348          12.295
  2020           5.948           1.032           4.721           1.054          12.377          10.408          12.355
  2030           5.948           1.032           4.721           1.059          12.437          10.468          12.415
  2040           5.949           1.032           4.722           1.064          12.497          10.528          12.475
  2050           5.949           1.032           4.722           1.069          12.557          10.589          12.536
  2060           5.950           1.032           4.723           1.074          12.617          10.649          12.596
  2070           5.950           1.032           4.723           1.079          12.677          10.709          12.656
  2080           5.951           1.032           4.724           1.084          12.738          10.769          12.716
  2090           5.951           1.032           4.724           1.089          12.798          10.829          12.777
  2100           5.952           1.032           4.724           1.095          12.858          10.889          12.837
  2110           5.952           1.032           4.725           1.100          12.918          10.949          12.897
  2120           5.953           1.032           4.725           1.105          12.978          11.010          12.957
  2130           5.953           1.032           4.726           1.110          13.038          11.070          13.018
  2140           5.954           1.032           4.726           1.115          13.099          11.130          13.078
  2150           5.954           1.032           4.726           1.120          13.159          11.190          13.138
  2160           5.954           1.032           4.727           1.125          13.219          11.250          13.198
  2170           5.955           1.032           4.727           1.130          13.279          11.310          13.259
  2180           5.955           1.032           4.727           1.136          13.339          11.371          13.319
  2190           5.956           1.032           4.728           1.141          13.399          11.431          13.379
  2200           5.956           1.032           4.728           1.146          13.460          11.491          13.440
  2210           5.956           1.032           4.728           1.151          13.520          11.551          13.500
  2220           5.957           1.032           4.729           1.156          13.580          11.611          13.560
  2230           5.957           1.032           4.729           1.161          13.640          11.672          13.620
  2240           5.958           1.032           4.729           1.166          13.701          11.732          13.681
  2250           5.958           1.033           4.730           1.172          13.761          11.792          13.741
  2260           5.958           1.033           4.730           1.177          13.821          11.852          13.801
  2270           5.959           1.033           4.730           1.182          13.881          11.913          13.862
  2280           5.959           1.033           4.731           1.187          13.941          11.973          13.922
  2290           5.959           1.033           4.731           1.192          14.002          12.033          13.982
  2300           5.960           1.033           4.731           1.197          14.062          12.093          14.043
  2310           5.960           1.033           4.732           1.202          14.122          12.153          14.103
  2320           5.960           1.033           4.732           1.207          14.182          12.214          14.163
  2330           5.961           1.033           4.732           1.213          14.243          12.274          14.224
  2340           5.961           1.033           4.733           1.218          14.303          12.334          14.284
  2350           5.961           1.033           4.733           1.223          14.363          12.394          14.344
  2360           5.962           1.033           4.733           1.228          14.423          12.455          14.405
  2370           5.962           1.033           4.733           1.233          14.484          12.515          14.465
  2380           5.962           1.033           4.734           1.238          14.544          12.575          14.525
  2390           5.963           1.033           4.734           1.243          14.604          12.636          14.586
  2400           5.963           1.033           4.734           1.249          14.664          12.696          14.646
  2410           5.963           1.033           4.735           1.254          14.725          12.756          14.706
  2420           5.964           1.033           4.735           1.259          14.785          12.816          14.767
  2430           5.964           1.033           4.735           1.264          14.845          12.877          14.827
  2440           5.964           1.033           4.735           1.269          14.906          12.937          14.887
  2450           5.965           1.033           4.736           1.274          14.966          12.997          14.948
  2460           5.965           1.033           4.736           1.279          15.026          13.058          15.008
  2470           5.965           1.033           4.736           1.285          15.086          13.118          15.069
  2480           5.965           1.033           4.736           1.290          15.147          13.178          15.129
  2490           5.966           1.033           4.737           1.295          15.207          13.238          15.189
  2500           5.966           1.033           4.737           1.300          15.267          13.299          15.250
  2510           5.966           1.033           4.737           1.305          15.328          13.359          15.310
  2520           5.966           1.033           4.737           1.310          15.388          13.419          15.370
  2530           5.967           1.033           4.737           1.315          15.448          13.480          15.431
  2540           5.967           1.033           4.738           1.321          15.509          13.540          15.491
  2550           5.967           1.033           4.738           1.326          15.569          13.600          15.552
  2560           5.968           1.033           4.738           1.331          15.629          13.661          15.612
  2570           5.968           1.033           4.738           1.336          15.690          13.721          15.672
  2580           5.968           1.033           4.739           1.341          15.750          13.781          15.733
  2590           5.968           1.033           4.739           1.346          15.810          13.842          15.793
  2600           5.968           1.033           4.739           1.351          15.871          13.902          15.854
  2610           5.969           1.033           4.739           1.357          15.931          13.962          15.914
  2620           5.969           1.033           4.739           1.362          15.991          14.023          15.974
  2630           5.969           1.033           4.740           1.367          16.052          14.083          16.035
  2640           5.969           1.033           4.740           1.372          16.112          14.143          16.095
  2650           5.970           1.033           4.740           1.377          16.172          14.204          16.156
  2660           5.970           1.033           4.740           1.382          16.233          14.264          16.216
  2670           5.970           1.033           4.740           1.387          16.293          14.324          16.276
  2680           5.970           1.033           4.741           1.393          16.353          14.385          16.337
  2690           5.971           1.033           4.741           1.398          16.414          14.445          16.397
  2700           5.971           1.033           4.741           1.403          16.474          14.506          16.458
  2710           5.971           1.033           4.741           1.408          16.534          14.566          16.518
  2720           5.971           1.033           4.741           1.413          16.595          14.626          16.579
  2730           5.971           1.033           4.742           1.418          16.655          14.687          16.639
  2740           5.972           1.033           4.742           1.423          16.716          14.747          16.699
  2750           5.972           1.033           4.742           1.429          16.776          14.807          16.760
  2760           5.972           1.033           4.742           1.434          16.836          14.868          16.820
  2770           5.972           1.033           4.742           1.439          16.897          14.928          16.881
  2780           5.972           1.033           4.742           1.444          16.957          14.989          16.941
  2790           5.973           1.033           4.743           1.449          17.017          15.049          17.002
  2800           5.973           1.033           4.743           1.454          17.078          15.109          17.062
  2810           5.973           1.033           4.743           1.459          17.138          15.170          17.122
  2820           5.973           1.033           4.743           1.465          17.199          15.230          17.183
  2830           5.973           1.033           4.743           1.470          17.259          15.290          17.243
  2840           5.974           1.033           4.743           1.475          17.319          15.351          17.304
  2850           5.974           1.033           4.744           1.480          17.380          15.411          17.364
  2860           5.974           1.033           4.744           1.485          17.440          15.472          17.425
  2870           5.974           1.033           4.744           1.490          17.501          15.532          17.485
  2880           5.974           1.033           4.744           1.495          17.561          15.592          17.546
  2890           5.974           1.033           4.744           1.501          17.621          15.653          17.606
  2900           5.975           1.033           4.744           1.506          17.682          15.713          17.667
  2910           5.975           1.033           4.745           1.511          17.742          15.774          17.727
  2920           5.975           1.033           4.745           1.516          17.803          15.834          17.787
  2930           5.975           1.033           4.745           1.521          17.863          15.894          17.848
  2940           5.975           1.033           4.745           1.526          17.923          15.955          17.908
  2950           5.976           1.033           4.745           1.532          17.984          16.015          17.969
  2960           5.976           1.033           4.745           1.537          18.044          16.076          18.029
  2970           5.976           1.033           4.745           1.542          18.105          16.136          18.090
  2980           5.976           1.033           4.746           1.547          18.165          16.197          18.150
  2990           5.976           1.033           4.746           1.552          18.226          16.257          18.211
  3000           5.976           1.033           4.746           1.557          18.286          16.317          18.271
  3010           5.976           1.033           4.746           1.562          18.346          16.378          18.332
  3020           5.977           1.033           4.746           1.568          18.407          16.438          18.392
  3030           5.977           1.033           4.746           1.573          18.467          16.499          18.453
  3040           5.977           1.033           4.746           1.578          18.528          16.559          18.513
  3050           5.977           1.033           4.747           1.583          18.588          16.620          18.574
  3060           5.977           1.033           4.747           1.588          18.649          16.680          18.634
  3070           5.977           1.033           4.747           1.593          18.709          16.740          18.695
  3080           5.978           1.033           4.747           1.598          18.769          16.801          18.755
  3090           5.978           1.033           4.747           1.604          18.830          16.861          18.816
  3100           5.978           1.033           4.747           1.609          18.890          16.922          18.876
  3110           5.978           1.033           4.747           1.614          18.951          16.982          18.937
  3120           5.978           1.033           4.747           1.619          19.011          17.043          18.997
  3130           5.978           1.033           4.748           1.624          19.072          17.103          19.057
  3140           5.978           1.033           4.748           1.629          19.132          17.164          19.118
  3150           5.979           1.033           4.748           1.635          19.193          17.224          19.178
  3160           5.979           1.033           4.748           1.640          19.253          17.284          19.239
  3170           5.979           1.033           4.748           1.645          19.313          17.345          19.299
  3180           5.979           1.033           4.748           1.650          19.374          17.405          19.360
  3190           5.979           1.033           4.748           1.655          19.434          17.466          19.420
  3200           5.979           1.033           4.748           1.660          19.495          17.526          19.481
  3210           5.979           1.033           4.749           1.665          19.555          17.587          19.541
  3220           5.979           1.033           4.749           1.671          19.616          17.647          19.602
  3230           5.980           1.033           4.749           1.676          19.676          17.708          19.662
  3240           5.980           1.033           4.749           1.681          19.737          17.768          19.723
  3250           5.980           1.033           4.749           1.686          19.797          17.829          19.783
  3260           5.980           1.033           4.749           1.691          19.858          17.889          19.844
  3270           5.980           1.033           4.749           1.696          19.918          17.949          19.904
  3280           5.980           1.033           4.749           1.702          19.979          18.010          19.965
  3290           5.980           1.033           4.749           1.707          20.039          18.070          20.026
  3300           5.980           1.033           4.749           1.712          20.099          18.131          20.086
  3310           5.981           1.033           4.750           1.717          20.160          18.191          20.147
  3320           5.981           1.033           4.750           1.722          20.220          18.252          20.207
  3330           5.981           1.033           4.750           1.727          20.281          18.312          20.268
  3340           5.981           1.033           4.750           1.732          20.341          18.373          20.328
  3350           5.981           1.033           4.750           1.738          20.402          18.433          20.389
  3360           5.981           1.033           4.750           1.743          20.462          18.494          20.449
  3370           5.981           1.033           4.750           1.748          20.523          18.554          20.510
  3380           5.981           1.033           4.750           1.753          20.583          18.615          20.570
  3390           5.981           1.033           4.750           1.758          20.644          18.675          20.631
  3400           5.982           1.033           4.750           1.763          20.704          18.736          20.691
  3410           5.982           1.033           4.751           1.769          20.765          18.796          20.752
  3420           5.982           1.033           4.751           1.774          20.825          18.857          20.812
  3430           5.982           1.033           4.751           1.779          20.886          18.917          20.873
  3440           5.982           1.033           4.751           1.784          20.946          18.978          20.933
  3450           5.982           1.033           4.751           1.789          21.007          19.038          20.994
  3460           5.982           1.033           4.751           1.794          21.067          19.099          21.054
  3470           5.982           1.033           4.751           1.799          21.128          19.159          21.115
  3480           5.982           1.033           4.751           1.805          21.188          19.220          21.175
  3490           5.982           1.033           4.751           1.810          21.249          19.280          21.236
  3500           5.983           1.033           4.751           1.815          21.309          19.341          21.296
  3510           5.983           1.033           4.751           1.820          21.370          19.401          21.357
  3520           5.983           1.033           4.752           1.825          21.430          19.462          21.418
  3530           5.983           1.033           4.752           1.830          21.491          19.522          21.478
  3540           5.983           1.033           4.752           1.836          21.551          19.583          21.539
  3550           5.983           1.033           4.752           1.841          21.612          19.643          21.599
  3560           5.983           1.033           4.752           1.846          21.672          19.704          21.660
  3570           5.983           1.033           4.752           1.851          21.733          19.764          21.720
  3580           5.983           1.033           4.752           1.856          21.793          19.825          21.781
  3590           5.983           1.033           4.752           1.861          21.854          19.885          21.841
  3600           5.984           1.033           4.752           1.866          21.914          19.946          21.902
  3610           5.984           1.033           4.752           1.872          21.975          20.006          21.962
  3620           5.984           1.033           4.752           1.877          22.035          20.067          22.023
  3630           5.984           1.033           4.752           1.882          22.096          20.127          22.083
  3640           5.984           1.033           4.753           1.887          22.156          20.188          22.144
  3650           5.984           1.033           4.753           1.892          22.217          20.248          22.204
  3660           5.984           1.033           4.753           1.897          22.277          20.309          22.265
  3670           5.984           1.033           4.753           1.903          22.338          20.369          22.326
  3680           5.984           1.033           4.753           1.908          22.398          20.430          22.386
  3690           5.984           1.033           4.753           1.913          22.459          20.490          22.447
  3700           5.984           1.033           4.753           1.918          22.519          20.551          22.507
  3710           5.984           1.033           4.753           1.923          22.580          20.611          22.568
  3720           5.985           1.033           4.753           1.928          22.640          20.672          22.628
  3730           5.985           1.033           4.753           1.933          22.701          20.732          22.689
  3740           5.985           1.033           4.753           1.939          22.761          20.793          22.749
  3750           5.985           1.033           4.753           1.944          22.822          20.853          22.810
  3760           5.985           1.033           4.753           1.949          22.882          20.914          22.871
  3770           5.985           1.033           4.753           1.954          22.943          20.974          22.931
  3780           5.985           1.033           4.754           1.959          23.003          21.035          22.992
  3790           5.985           1.033           4.754           1.964          23.064          21.095          23.052
  3800           5.985           1.033           4.754           1.970          23.124          21.156          23.113
  3810           5.985           1.033           4.754           1.975          23.185          21.216          23.173
  3820           5.985           1.033           4.754           1.980          23.245          21.277          23.234
  3830           5.985           1.033           4.754           1.985          23.306          21.337          23.294
  3840           5.986           1.033           4.754           1.990          23.366          21.398          23.355
  3850           5.986           1.033           4.754           1.995          23.427          21.459          23.416
  3860           5.986           1.033           4.754           2.001          23.488          21.519          23.476
  3870           5.986           1.033           4.754           2.006          23.548          21.580          23.537
  3880           5.986           1.033           4.754           2.011          23.609          21.640          23.597
  3890           5.986           1.033           4.754           2.016          23.669          21.701          23.658
  3900           5.986           1.033           4.754           2.021          23.730          21.761          23.718
  3910           5.986           1.033           4.754           2.026          23.790          21.822          23.779
  3920           5.986           1.033           4.754           2.031          23.851          21.882          23.839
  3930           5.986           1.033           4.755           2.037          23.911          21.943          23.900
  3940           5.986           1.033           4.755           2.042          23.972          22.003          23.961
  3950           5.986           1.033           4.755           2.047          24.032          22.064          24.021
  3960           5.986           1.033           4.755           2.052          24.093          22.124          24.082
  3970           5.986           1.033           4.755           2.057          24.153          22.185          24.142
  3980           5.987           1.033           4.755           2.062          24.214          22.245          24.203
  3990           5.987           1.033           4.755           2.068          24.274          22.306          24.263
  4000           5.987           1.033           4.755           2.073          24.335          22.367          24.324
  4010           5.987           1.033           4.755           2.078          24.396          22.427          24.385
  4020           5.987           1.033           4.755           2.083          24.456          22.488          24.445
  4030           5.987           1.033           4.755           2.088          24.517          22.548          24.506
  4040           5.987           1.033           4.755           2.093          24.577          22.609          24.566
  4050           5.987           1.033           4.755           2.099          24.638          22.669          24.627
  4060           5.987           1.033           4.755           2.104          24.698          22.730          24.687
  4070           5.987           1.033           4.755           2.109          24.759          22.790          24.748
  4080           5.987           1.033           4.755           2.114          24.819          22.851          24.809
  4090           5.987           1.033           4.755           2.119          24.880          22.911          24.869
  4100           5.987           1.033           4.756           2.124          24.940          22.972          24.930
  4110           5.987           1.033           4.756           2.130          25.001          23.033          24.990
  4120           5.987           1.033           4.756           2.135          25.062          23.093          25.051
  4130           5.987           1.033           4.756           2.140          25.122          23.154          25.111
  4140           5.988           1.033           4.756           2.145          25.183          23.214          25.172
  4150           5.988           1.033           4.756           2.150          25.243          23.275          25.233
  4160           5.988           1.033           4.756           2.155          25.304          23.335          25.293
  4170           5.988           1.033           4.756           2.160          25.364          23.396          25.354
  4180           5.988           1.033           4.756           2.166          25.425          23.456          25.414
  4190           5.988           1.033           4.756           2.171          25.485          23.517          25.475
  4200           5.988           1.033           4.756           2.176          25.546          23.577          25.535
  4210           5.988           1.033           4.756           2.181          25.607          23.638          25.596
  4220           5.988           1.033           4.756           2.186          25.667          23.699          25.657
  4230           5.988           1.033           4.756           2.191          25.728          23.759          25.717
  4240           5.988           1.033           4.756           2.197          25.788          23.820          25.778
  4250           5.988           1.033           4.756           2.202          25.849          23.880          25.838
  4260           5.988           1.033           4.756           2.207          25.909          23.941          25.899
  4270           5.988           1.033           4.756           2.212          25.970          24.001          25.959
  4280           5.988           1.033           4.756           2.217          26.030          24.062          26.020
  4290           5.988           1.033           4.756           2.222          26.091          24.122          26.081
  4300           5.988           1.033           4.757           2.228          26.152          24.183          26.141
  4310           5.989           1.033           4.757           2.233          26.212          24.244          26.202
  4320           5.989           1.033           4.757           2.238          26.273          24.304          26.262
  4330           5.989           1.033           4.757           2.243          26.333          24.365          26.323
  4340           5.989           1.033           4.757           2.248          26.394          24.425          26.384
  4350           5.989           1.033           4.757           2.253          26.454          24.486          26.444
  4360           5.989           1.033           4.757           2.259          26.515          24.546          26.505
  4370           5.989           1.033           4.757           2.264          26.575          24.607          26.565
  4380           5.989           1.033           4.757           2.269          26.636          24.668          26.626
  4390           5.989           1.033           4.757           2.274          26.697          24.728          26.687
  4400           5.989           1.033           4.757           2.279          26.757          24.789          26.747
  4410           5.989           1.033           4.757           2.284          26.818          24.849          26.808
  4420           5.989           1.033           4.757           2.289          26.878          24.910          26.868
  4430           5.989           1.033           4.757           2.295          26.939          24.970          26.929
  4440           5.989           1.033           4.757           2.300          26.999          25.031          26.989
  4450           5.989           1.033           4.757           2.305          27.060          25.092          27.050
  4460           5.989           1.033           4.757           2.310          27.121          25.152          27.111
  4470           5.989           1.033           4.757           2.315          27.181          25.213          27.171
  4480           5.989           1.033           4.757           2.320          27.242          25.273          27.232
  4490           5.989           1.033           4.757           2.326          27.302          25.334          27.292
  4500           5.989           1.033           4.757           2.331          27.363          25.394          27.353
  4510           5.989           1.033           4.757           2.336          27.423          25.455          27.414
  4520           5.990           1.033           4.757           2.341          27.484          25.515          27.474
  4530           5.990           1.033           4.758           2.346          27.545          25.576          27.535
  4540           5.990           1.033           4.758           2.351          27.605          25.637          27.595
  4550           5.990           1.033           4.758           2.357          27.666          25.697          27.656
  4560           5.990           1.033           4.758           2.362          27.726          25.758          27.717
  4570           5.990           1.033           4.758           2.367          27.787          25.818          27.777
  4580           5.990           1.033           4.758           2.372          27.847          25.879          27.838
  4590           5.990           1.033           4.758           2.377          27.908          25.940          27.898
  4600           5.990           1.033           4.758           2.382          27.969          26.000          27.959
  4610           5.990           1.033           4.758           2.388          28.029          26.061          28.020
  4620           5.990           1.033           4.758           2.393          28.090          26.121          28.080
  4630           5.990           1.033           4.758           2.398          28.150          26.182          28.141
  4640           5.990           1.033           4.758           2.403          28.211          26.242          28.201
  4650           5.990           1.033           4.758           2.408          28.271          26.303          28.262
  4660           5.990           1.033           4.758           2.413          28.332          26.364          28.323
  4670           5.990           1.033           4.758           2.419          28.393          26.424          28.383
  4680           5.990           1.033           4.758           2.424          28.453          26.485          28.444
  4690           5.990           1.033           4.758           2.429          28.514          26.545          28.504
  4700           5.990           1.033           4.758           2.434          28.574          26.606          28.565
  4710           5.990           1.033           4.758           2.439          28.635          26.666          28.626
  4720           5.990           1.033           4.758           2.444          28.696          26.727          28.686
  4730           5.990           1.033           4.758           2.449          28.756          26.788          28.747
  4740           5.990           1.033           4.758           2.455          28.817          26.848          28.807
  4750           5.991           1.033           4.758           2.460          28.877          26.909          28.868
  4760           5.991           1.033           4.758           2.465          28.938          26.969          28.929
  4770           5.991           1.033           4.758           2.470          28.998          27.030          28.989
  4780           5.991           1.033           4.758           2.475          29.059          27.091          29.050
  4790           5.991           1.033           4.758           2.480          29.120          27.151          29.110
  4800           5.991           1.033           4.759           2.486          29.180          27.212          29.171
  4810           5.991           1.033           4.759           2.491          29.241          27.272          29.232
  4820           5.991           1.033           4.759           2.496          29.301          27.333          29.292
  4830           5.991           1.033           4.759           2.501          29.362          27.393          29.353
  4840           5.991           1.033           4.759           2.506          29.423          27.454          29.413
  4850           5.991           1.033           4.759           2.511          29.483          27.515          29.474
  4860           5.991           1.033           4.759           2.517          29.544          27.575          29.535
  4870           5.991           1.033           4.759           2.522          29.604          27.636          29.595
  4880           5.991           1.033           4.759           2.527          29.665          27.696          29.656
  4890           5.991           1.033           4.759           2.532          29.725          27.757          29.716
  4900           5.991           1.033           4.759           2.537          29.786          27.818          29.777
  4910           5.991           1.033           4.759           2.542          29.847          27.878          29.838
  4920           5.991           1.033           4.759           2.548          29.907          27.939          29.898
  4930           5.991           1.033           4.759           2.553          29.968          27.999          29.959
  4940           5.991           1.033           4.759           2.558          30.028          28.060          30.019
  4950           5.991           1.033           4.759           2.563          30.089          28.121          30.080
  4960           5.991           1.033           4.759           2.568          30.150          28.181          30.141
  4970           5.991           1.033           4.759           2.573          30.210          28.242          30.201
  4980           5.991           1.033           4.759           2.579          30.271          28.302          30.262
  4990           5.991           1.033           4.759           2.584          30.331          28.363          30.323
  5000           5.991           1.033           4.759           2.589          30.392          28.423          30.383
  5010           5.991           1.033           4.759           2.594          30.453          28.484          30.444
  5020           5.992           1.033           4.759           2.599          30.513          28.545          30.504
  5030           5.992           1.033           4.759           2.604          30.574          28.605          30.565
  5040           5.992           1.033           4.759           2.610          30.634          28.666          30.626
  5050           5.992           1.033           4.759           2.615          30.695          28.726          30.686
  5060           5.992           1.033           4.759           2.620          30.756          28.787          30.747
  5070           5.992           1.033           4.759           2.625          30.816          28.848          30.807
  5080           5.992           1.033           4.759           2.630          30.877          28.908          30.868
  5090           5.992           1.033           4.759           2.635          30.937          28.969          30.929
  5100           5.992           1.033           4.759           2.641          30.998          29.029          30.989
  5110           5.992           1.033           4.759           2.646          31.059          29.090          31.050
  5120           5.992           1.033           4.760           2.651          31.119          29.151          31.110
  5130           5.992           1.033           4.760           2.656          31.180          29.211          31.171
  5140           5.992           1.033           4.760           2.661          31.240          29.272          31.232
  5150           5.992           1.033           4.760           2.666          31.301          29.332          31.292
  5160           5.992           1.033           4.760           2.672          31.362          29.393          31.353
  5170           5.992           1.033           4.760           2.677          31.422          29.454          31.414
  5180           5.992           1.033           4.760           2.682          31.483          29.514          31.474
  5190           5.992           1.033           4.760           2.687          31.543          29.575          31.535
  5200           5.992           1.033           4.760           2.692          31.604          29.635          31.595
  5210           5.992           1.033           4.760           2.697          31.665          29.696          31.656
  5220           5.992           1.033           4.760           2.702          31.725          29.757          31.717
  5230           5.992           1.033           4.760           2.708          31.786          29.817          31.777
  5240           5.992           1.033           4.760           2.713          31.846          29.878          31.838
  5250           5.992           1.033           4.760           2.718          31.907          29.938          31.898
  5260           5.992           1.033           4.760           2.723          31.968          29.999          31.959
  5270           5.992           1.033           4.760           2.728          32.028          30.060          32.020
  5280           5.992           1.033           4.760           2.733          32.089          30.120          32.080
  5290           5.992           1.033           4.760           2.739          32.149          30.181          32.141
  5300           5.992           1.033           4.760           2.744          32.210          30.241          32.202
  5310           5.992           1.033           4.760           2.749          32.271          30.302          32.262
  5320           5.992           1.033           4.760           2.754          32.331          30.363          32.323
  5330           5.992           1.033           4.760           2.759          32.392          30.423          32.383
  5340           5.993           1.033           4.760           2.764          32.452          30.484          32.444
  5350           5.993           1.033           4.760           2.770          32.513          30.544          32.505
  5360           5.993           1.033           4.760           2.775          32.574          30.605          32.565
  5370           5.993           1.033           4.760           2.780          32.634          30.666          32.626
  5380           5.993           1.033           4.760           2.785          32.695          30.726          32.687
  5390           5.993           1.033           4.760           2.790          32.755          30.787          32.747
  5400           5.993           1.033           4.760           2.795          32.816          30.848          32.808
  5410           5.993           1.033           4.760           2.801          32.877          30.908          32.868
  5420           5.993           1.033           4.760           2.806          32.937          30.969          32.929
  5430           5.993           1.033           4.760           2.811          32.998          31.029          32.990
  5440           5.993           1.033           4.760           2.816          33.058          31.090          33.050
  5450           5.993           1.033           4.760           2.821          33.119          31.151          33.111
  5460           5.993           1.033           4.760           2.826          33.180          31.211          33.172
  5470           5.993           1.033           4.760           2.832          33.240          31.272          33.232
  5480           5.993           1.033           4.760           2.837          33.301          31.332          33.293
  5490           5.993           1.033           4.760           2.842          33.361          31.393          33.353
  5500           5.993           1.033           4.760           2.847          33.422          31.454          33.414
  5510           5.993           1.033           4.760           2.852          33.483          31.514          33.475
  5520           5.993           1.033           4.761           2.857          33.543          31.575          33.535
  5530           5.993           1.033           4.761           2.863          33.604          31.635          33.596
  5540           5.993           1.033           4.761           2.868          33.665          31.696          33.657
  5550           5.993           1.033           4.761           2.873          33.725          31.757          33.717
  5560           5.993           1.033           4.761           2.878          33.786          31.817          33.778
  5570           5.993           1.033           4.761           2.883          33.846          31.878          33.838
  5580           5.993           1.033           4.761           2.888          33.907          31.938          33.899
  5590           5.993           1.033           4.761           2.894          33.968          31.999          33.960
  5600           5.993           1.033           4.761           2.899          34.028          32.060          34.020
  5610           5.993           1.033           4.761           2.904          34.089          32.120          34.081
  5620           5.993           1.033           4.761           2.909          34.149          32.181          34.142
  5630           5.993           1.033           4.761           2.914          34.210          32.242          34.202
  5640           5.993           1.033           4.761           2.919          34.271          32.302          34.263
  5650           5.993           1.033           4.761           2.925          34.331          32.363          34.323
  5660           5.993           1.033           4.761           2.930          34.392          32.423          34.384
  5670           5.993           1.033           4.761           2.935          34.452          32.484          34.445
  5680           5.993           1.033           4.761           2.940          34.513          32.545          34.505
  5690           5.993           1.033           4.761           2.945          34.574          32.605          34.566
  5700           5.993           1.033           4.761           2.950          34.634          32.666          34.627
  5710           5.993           1.033           4.761           2.956          34.695          32.726          34.687
  5720           5.993           1.033           4.761           2.961          34.756          32.787          34.748
  5730           5.993           1.033           4.761           2.966          34.816          32.848          34.808
  5740           5.994           1.033           4.761           2.971          34.877          32.908          34.869
  5750           5.994           1.033           4.761           2.976          34.937          32.969          34.930
  5760           5.994           1.033           4.761           2.981          34.998          33.030          34.990
  5770           5.994           1.033           4.761           2.987          35.059          33.090          35.051
  5780           5.994           1.033           4.761           2.992          35.119          33.151          35.112
  5790           5.994           1.033           4.761           2.997          35.180          33.211          35.172
  5800           5.994           1.033           4.761           3.002          35.240          33.272          35.233
  5810           5.994           1.033           4.761           3.007          35.301          33.333          35.293
  5820           5.994           1.033           4.761           3.012          35.362          33.393          35.354
  5830           5.994           1.033           4.761           3.018          35.422          33.454          35.415
  5840           5.994           1.033           4.761           3.023          35.483          33.515          35.475
  5850           5.994           1.033           4.761           3.028          35.544          33.575          35.536
  5860           5.994           1.033           4.761           3.033          35.604          33.636          35.597
  5870           5.994           1.033           4.761           3.038          35.665          33.696          35.657
  5880           5.994           1.033           4.761           3.043          35.725          33.757          35.718
  5890           5.994           1.033           4.761           3.048          35.786          33.818          35.779
  5900           5.994           1.033           4.761           3.054          35.847          33.878          35.839
  5910           5.994           1.033           4.761           3.059          35.907          33.939          35.900
  5920           5.994           1.033           4.761           3.064          35.968          33.999          35.960
  5930           5.994           1.033           4.761           3.069          36.029          34.060          36.021
  5940           5.994           1.033           4.761           3.074          36.089          34.121          36.082
  5950           5.994           1.033           4.761           3.079          36.150          34.181          36.142
  5960           5.994           1.033           4.761           3.085          36.210          34.242          36.203
  5970           5.994           1.033           4.761           3.090          36.271          34.303          36.264
  5980           5.994           1.033           4.761           3.095          36.332          34.363          36.324
  5990           5.994           1.033           4.761           3.100          36.392          34.424          36.385
  6000           5.994           1.033           4.761           3.105          36.453          34.484          36.446
  6010           5.994           1.033           4.761           3.110          36.514          34.545          36.506
  6020           5.994           1.033           4.761           3.116          36.574          34.606          36.567
  6030           5.994           1.033           4.761           3.121          36.635          34.666          36.627
  6040           5.994           1.033           4.762           3.126          36.695          34.727          36.688
  6050           5.994           1.033           4.762           3.131          36.756          34.788          36.749
  6060           5.994           1.033           4.762           3.136          36.817          34.848          36.809
  6070           5.994           1.033           4.762           3.141          36.877          34.909          36.870
  6080           5.994           1.033           4.762           3.147          36.938          34.969          36.931
  6090           5.994           1.033           4.762           3.152          36.999          35.030          36.991
  6100           5.994           1.033           4.762           3.157          37.059          35.091          37.052
  6110           5.994           1.033           4.762           3.162          37.120          35.151          37.113
  6120           5.994           1.033           4.762           3.167          37.180          35.212          37.173
  6130           5.994           1.033           4.762           3.172          37.241          35.273          37.234
  6140           5.994           1.033           4.762           3.178          37.302          35.333          37.294
  6150           5.994           1.033           4.762           3.183          37.362          35.394          37.355
  6160           5.994           1.033           4.762           3.188          37.423          35.454          37.416
  6170           5.994           1.033           4.762           3.193          37.484          35.515          37.476
  6180           5.994           1.033           4.762           3.198          37.544          35.576          37.537
  6190           5.994           1.033           4.762           3.203          37.605          35.636          37.598
  6200           5.994           1.033           4.762           3.209          37.665          35.697          37.658
  6210           5.994           1.033           4.762           3.214          37.726          35.758          37.719
  6220           5.994           1.033           4.762           3.219          37.787          35.818          37.780
  6230           5.994           1.033           4.762           3.224          37.847          35.879          37.840
  6240           5.995           1.033           4.762           3.229          37.908          35.939          37.901
  6250           5.995           1.033           4.762           3.234          37.969          36.000          37.961
  6260           5.995           1.033           4.762           3.240          38.029          36.061          38.022
  6270           5.995           1.033           4.762           3.245          38.090          36.121          38.083
  6280           5.995           1.033           4.762           3.250          38.150          36.182          38.143
  6290           5.995           1.033           4.762           3.255          38.211          36.243          38.204
  6300           5.995           1.033           4.762           3.260          38.272          36.303          38.265
  6310           5.995           1.033           4.762           3.265          38.332          36.364          38.325
  6320           5.995           1.033           4.762           3.271          38.393          36.424          38.386
  6330           5.995           1.033           4.762           3.276          38.454          36.485          38.447
  6340           5.995           1.033           4.762           3.281          38.514          36.546          38.507
  6350           5.995           1.033           4.762           3.286          38.575          36.606          38.568
  6360           5.995           1.033           4.762           3.291          38.635          36.667          38.628
  6370           5.995           1.033           4.762           3.296          38.696          36.728          38.689
  6380           5.995           1.033           4.762           3.302          38.757          36.788          38.750
  6390           5.995           1.033           4.762           3.307          38.817          36.849          38.810
  6400           5.995           1.033           4.762           3.312          38.878          36.909          38.871
  6410           5.995           1.033           4.762           3.317          38.939          36.970          38.932
  6420           5.995           1.033           4.762           3.322          38.999          37.031          38.992
  6430           5.995           1.033           4.762           3.327          39.060          37.091          39.053
  6440           5.995           1.033           4.762           3.333          39.120          37.152          39.114
  6450           5.995           1.033           4.762           3.338          39.181          37.213          39.174
  6460           5.995           1.033           4.762           3.343          39.242          37.273          39.235
  6470           5.995           1.033           4.762           3.348          39.302          37.334          39.296
  6480           5.995           1.033           4.762           3.353          39.363          37.395          39.356
  6490           5.995           1.033           4.762           3.358          39.424          37.455          39.417
  6500           5.995           1.033           4.762           3.364          39.484          37.516          39.477
  6510           5.995           1.033           4.762           3.369          39.545          37.576          39.538
  6520           5.995           1.033           4.762           3.374          39.606          37.637          39.599
  6530           5.995           1.033           4.762           3.379          39.666          37.698          39.659
  6540           5.995           1.033           4.762           3.384          39.727          37.758          39.720
  6550           5.995           1.033           4.762           3.389          39.787          37.819          39.781
  6560           5.995           1.033           4.762           3.395          39.848          37.880          39.841
  6570           5.995           1.033           4.762           3.400          39.909          37.940          39.902
  6580           5.995           1.033           4.762           3.405          39.969          38.001          39.963
  6590           5.995           1.033           4.762           3.410          40.030          38.062          40.023
  6600           5.995           1.033           4.762           3.415          40.091          38.122          40.084
  6610           5.995           1.033           4.762           3.420          40.151          38.183          40.145
  6620           5.995           1.033           4.762           3.426          40.212          38.243          40.205
  6630           5.995           1.033           4.762           3.431          40.273          38.304          40.266
  6640           5.995           1.033           4.762           3.436          40.333          38.365          40.326
  6650           5.995           1.033           4.762           3.441          40.394          38.425          40.387
  6660           5.995           1.033           4.762           3.446          40.454          38.486          40.448
  6670           5.995           1.033           4.762           3.451          40.515          38.547          40.508
  6680           5.995           1.033           4.762           3.457          40.576          38.607          40.569
  6690           5.995           1.033           4.762           3.462          40.636          38.668          40.630
  6700           5.995           1.033           4.762           3.467          40.697          38.728          40.690
  6710           5.995           1.033           4.762           3.472          40.758          38.789          40.751
  6720           5.995           1.033           4.763           3.477          40.818          38.850          40.812
  6730           5.995           1.033           4.763           3.482          40.879          38.910          40.872
  6740           5.995           1.033           4.763           3.488          40.939          38.971          40.933
  6750           5.995           1.033           4.763           3.493          41.000          39.032          40.994
  6760           5.995           1.033           4.763           3.498          41.061          39.092          41.054
  6770           5.995           1.033           4.763           3.503          41.121          39.153          41.115
  6780           5.995           1.033           4.763           3.508          41.182          39.214          41.176
  6790           5.995           1.033           4.763           3.513          41.243          39.274          41.236
  6800           5.995           1.033           4.763           3.519          41.303          39.335          41.297
  6810           5.995           1.033           4.763           3.524          41.364          39.395          41.357
  6820           5.995           1.033           4.763           3.529          41.425          39.456          41.418
  6830           5.995           1.033           4.763           3.534          41.485          39.517          41.479
  6840           5.995           1.033           4.763           3.539          41.546          39.577          41.539
  6850           5.995           1.033           4.763           3.544          41.606          39.638          41.600
  6860           5.995           1.033           4.763           3.550          41.667          39.699          41.661
  6870           5.995           1.033           4.763           3.555          41.728          39.759          41.721
  6880           5.995           1.033           4.763           3.560          41.788          39.820          41.782
  6890           5.995           1.033           4.763           3.565          41.849          39.881          41.843
  6900           5.996           1.033           4.763           3.570          41.910          39.941          41.903
  6910           5.996           1.033           4.763           3.575          41.970          40.002          41.964
  6920           5.996           1.033           4.763           3.581          42.031          40.063          42.025
  6930           5.996           1.033           4.763           3.586          42.092          40.123          42.085
  6940           5.996           1.033           4.763           3.591          42.152          40.184          42.146
  6950           5.996           1.033           4.763           3.596          42.213          40.244          42.207
  6960           5.996           1.033           4.763           3.601          42.274          40.305          42.267
  6970           5.996           1.033           4.763           3.606          42.334          40.366          42.328
  6980           5.996           1.033           4.763           3.612          42.395          40.426          42.388
  6990           5.996           1.033           4.763           3.617          42.455          40.487          42.449
  7000           5.996           1.033           4.763           3.622          42.516          40.548          42.510
  7010           5.996           1.033           4.763           3.627          42.577          40.608          42.570
  7020           5.996           1.033           4.763           3.632          42.637          40.669          42.631
  7030           5.996           1.033           4.763           3.637          42.698          40.730          42.692
  7040           5.996           1.033           4.763           3.643          42.759          40.790          42.752
  7050           5.996           1.033           4.763           3.648          42.819          40.851          42.813
  7060           5.996           1.033           4.763           3.653          42.880          40.911          42.874
  7070           5.996           1.033           4.763           3.658          42.941          40.972          42.934
  7080           5.996           1.033           4.763           3.663          43.001          41.033          42.995
  7090           5.996           1.033           4.763           3.668          43.062          41.093          43.056
  7100           5.996           1.033           4.763           3.674          43.122          41.154          43.116
  7110           5.996           1.033           4.763           3.679          43.183          41.215          43.177
  7120           5.996           1.033           4.763           3.684          43.244          41.275          43.238
  7130           5.996           1.033           4.763           3.689          43.304          41.336          43.298
  7140           5.996           1.033           4.763           3.694          43.365          41.397          43.359
  7150           5.996           1.033           4.763           3.699          43.426          41.457          43.420
  7160           5.996           1.033           4.763           3.705          43.486          41.518          43.480
  7170           5.996           1.033           4.763           3.710          43.547          41.579          43.541
  7180           5.996           1.033           4.763           3.715          43.608          41.639          43.601
  7190           5.996           1.033           4.763           3.720          43.668          41.700          43.662
  7200           5.996           1.033           4.763           3.725          43.729          41.760          43.723
  7210           5.996           1.033           4.763           3.730          43.790          41.821          43.783
  7220           5.996           1.033           4.763           3.736          43.850          41.882          43.844
  7230           5.996           1.033           4.763           3.741          43.911          41.942          43.905
  7240           5.996           1.033           4.763           3.746          43.971          42.003          43.965
  7250           5.996           1.033           4.763           3.751          44.032          42.064          44.026
  7260           5.996           1.033           4.763           3.756          44.093          42.124          44.087
  7270           5.996           1.033           4.763           3.761          44.153          42.185          44.147
  7280           5.996           1.033           4.763           3.767          44.214          42.246          44.208
  7290           5.996           1.033           4.763           3.772          44.275          42.306          44.269
  7300           5.996           1.033           4.763           3.777          44.335          42.367          44.329
  7310           5.996           1.033           4.763           3.782          44.396          42.428          44.390
  7320           5.996           1.033           4.763           3.787          44.457          42.488          44.451
  7330           5.996           1.033           4.763           3.792          44.517          42.549          44.511
  7340           5.996           1.033           4.763           3.798          44.578          42.609          44.572
  7350           5.996           1.033           4.763           3.803          44.639          42.670          44.633
  7360           5.996           1.033           4.763           3.808          44.699          42.731          44.693
  7370           5.996           1.033           4.763           3.813          44.760          42.791          44.754
  7380           5.996           1.033           4.763           3.818          44.820          42.852          44.814
  7390           5.996           1.033           4.763           3.823          44.881          42.913          44.875
  7400           5.996           1.033           4.763           3.829          44.942          42.973          44.936
  7410           5.996           1.033           4.763           3.834          45.002          43.034          44.996
  7420           5.996           1.033           4.763           3.839          45.063          43.095          45.057
  7430           5.996           1.033           4.763           3.844          45.124          43.155          45.118
  7440           5.996           1.033           4.763           3.849          45.184          43.216          45.178
  7450           5.996           1.033           4.763           3.854          45.245          43.277          45.239
  7460           5.996           1.033           4.763           3.860          45.306          43.337          45.300
  7470           5.996           1.033           4.763           3.865          45.366          43.398          45.360
  7480           5.996           1.033           4.763           3.870          45.427          43.458          45.421
  7490           5.996           1.033           4.763           3.875          45.488          43.519          45.482
  7500           5.996           1.033           4.763           3.880          45.548          43.580          45.542
  7510           5.996           1.033           4.763           3.885          45.609          43.640          45.603
  7520           5.996           1.033           4.763           3.891          45.670          43.701          45.664
  7530           5.996           1.033           4.763           3.896          45.730          43.762          45.724
  7540           5.996           1.033           4.763           3.901          45.791          43.822          45.785
  7550           5.996           1.033           4.763           3.906          45.851          43.883          45.846
  7560           5.996           1.033           4.763           3.911          45.912          43.944          45.906
  7570           5.996           1.033           4.763           3.916          45.973          44.004          45.967
  7580           5.996           1.033           4.763           3.922          46.033          44.065          46.028
  7590           5.996           1.033           4.763           3.927          46.094          44.126          46.088
  7600           5.996           1.033           4.763           3.932          46.155          44.186          46.149
  7610           5.996           1.033           4.763           3.937          46.215          44.247          46.210
  7620           5.996           1.033           4.763           3.942          46.276          44.308          46.270
  7630           5.996           1.033           4.763           3.947          46.337          44.368          46.331
  7640           5.996           1.033           4.763           3.953          46.397          44.429          46.392
  7650           5.996           1.033           4.763           3.958          46.458          44.489          46.452
  7660           5.996           1.033           4.763           3.963          46.519          44.550          46.513
  7670           5.996           1.033           4.763           3.968          46.579          44.611          46.573
  7680           5.996           1.033           4.763           3.973          46.640          44.671          46.634
  7690           5.996           1.033           4.763           3.978          46.701          44.732          46.695
  7700           5.996           1.033           4.763           3.984          46.761          44.793          46.755
  7710           5.996           1.033           4.763           3.989          46.822          44.853          46.816
  7720           5.996           1.033           4.764           3.994          46.882          44.914          46.877
  7730           5.996           1.033           4.764           3.999          46.943          44.975          46.937
  7740           5.996           1.033           4.764           4.004          47.004          45.035          46.998
  7750           5.996           1.033           4.764           4.009          47.064          45.096          47.059
  7760           5.996           1.033           4.764           4.015          47.125          45.157          47.119
  7770           5.996           1.033           4.764           4.020          47.186          45.217          47.180
  7780           5.996           1.033           4.764           4.025          47.246          45.278          47.241
  7790           5.996           1.033           4.764           4.030          47.307          45.339          47.301
  7800           5.996           1.033           4.764           4.035          47.368          45.399          47.362
  7810           5.996           1.033           4.764           4.040          47.428          45.460          47.423
  7820           5.997           1.033           4.764           4.046          47.489          45.521          47.483
  7830           5.997           1.033           4.764           4.051          47.550          45.581          47.544
  7840           5.997           1.033           4.764           4.056          47.610          45.642          47.605
  7850           5.997           1.033           4.764           4.061          47.671          45.702          47.665
  7860           5.997           1.033           4.764           4.066          47.732          45.763          47.726
  7870           5.997           1.033           4.764           4.071          47.792          45.824          47.787
  7880           5.997           1.033           4.764           4.077          47.853          45.884          47.847
  7890           5.997           1.033           4.764           4.082          47.914          45.945          47.908
  7900           5.997           1.033           4.764           4.087          47.974          46.006          47.969
  7910           5.997           1.033           4.764           4.092          48.035          46.066          48.029
  7920           5.997           1.033           4.764           4.097          48.095          46.127          48.090
  7930           5.997           1.033           4.764           4.102          48.156          46.188          48.151
  7940           5.997           1.033           4.764           4.108          48.217          46.248          48.211
  7950           5.997           1.033           4.764           4.113          48.277          46.309          48.272
  7960           5.997           1.033           4.764           4.118          48.338          46.370          48.333
  7970           5.997           1.033           4.764           4.123          48.399          46.430          48.393
  7980           5.997           1.033           4.764           4.128          48.459          46.491          48.454
  7990           5.997           1.033           4.764           4.133          48.520          46.552          48.514
  8000           5.997           1.033           4.764           4.139          48.581          46.612          48.575
  8010           5.997           1.033           4.764           4.144          48.641          46.673          48.636
  8020           5.997           1.033           4.764           4.149          48.702          46.734          48.696
  8030           5.997           1.033           4.764           4.154          48.763          46.794          48.757
  8040           5.997           1.033           4.764           4.159          48.823          46.855          48.818
  8050           5.997           1.033           4.764           4.164          48.884          46.915          48.878
  8060           5.997           1.033           4.764           4.170          48.945          46.976          48.939
  8070           5.997           1.033           4.764           4.175          49.005          47.037          49.000
  8080           5.997           1.033           4.764           4.180          49.066          47.097          49.060
  8090           5.997           1.033           4.764           4.185          49.127          47.158          49.121
  8100           5.997           1.033           4.764           4.190          49.187          47.219          49.182
  8110           5.997           1.033           4.764           4.195          49.248          47.279          49.242
  8120           5.997           1.033           4.764           4.201          49.309          47.340          49.303
  8130           5.997           1.033           4.764           4.206          49.369          47.401          49.364
  8140           5.997           1.033           4.764           4.211          49.430          47.461          49.424
  8150           5.997           1.033           4.764           4.216          49.490          47.522          49.485
  8160           5.997           1.033           4.764           4.221          49.551          47.583          49.546
  8170           5.997           1.033           4.764           4.226          49.612          47.643          49.606
  8180           5.997           1.033           4.764           4.232          49.672          47.704          49.667
  8190           5.997           1.033           4.764           4.237          49.733          47.765          49.728
  8200           5.997           1.033           4.764           4.242          49.794          47.825          49.788
  8210           5.997           1.033           4.764           4.247          49.854          47.886          49.849
  8220           5.997           1.033           4.764           4.252          49.915          47.947          49.910
  8230           5.997           1.033           4.764           4.257          49.976          48.007          49.970
  8240           5.997           1.033           4.764           4.263          50.036          48.068          50.031
  8250           5.997           1.033           4.764           4.268          50.097          48.129          50.092
  8260           5.997           1.033           4.764           4.273          50.158          48.189          50.152
  8270           5.997           1.033           4.764           4.278          50.218          48.250          50.213
  8280           5.997           1.033           4.764           4.283          50.279          48.311          50.274
  8290           5.997           1.033           4.764           4.288          50.340          48.371          50.334
  8300           5.997           1.033           4.764           4.294          50.400          48.432          50.395
  8310           5.997           1.033           4.764           4.299          50.461          48.492          50.456
  8320           5.997           1.033           4.764           4.304          50.522          48.553          50.516
  8330           5.997           1.033           4.764           4.309          50.582          48.614          50.577
  8340           5.997           1.033           4.764           4.314          50.643          48.674          50.638
  8350           5.997           1.033           4.764           4.319          50.704          48.735          50.698
  8360           5.997           1.033           4.764           4.325          50.764          48.796          50.759
  8370           5.997           1.033           4.764           4.330          50.825          48.856          50.820
  8380           5.997           1.033           4.764           4.335          50.886          48.917          50.880
  8390           5.997           1.033           4.764           4.340          50.946          48.978          50.941
  8400           5.997           1.033           4.764           4.345          51.007          49.038          51.002
  8410           5.997           1.033           4.764           4.351          51.067          49.099          51.062
  8420           5.997           1.033           4.764           4.356          51.128          49.160          51.123
  8430           5.997           1.033           4.764           4.361          51.189          49.220          51.184
  8440           5.997           1.033           4.764           4.366          51.249          49.281          51.244
  8450           5.997           1.033           4.764           4.371          51.310          49.342          51.305
  8460           5.997           1.033           4.764           4.376          51.371          49.402          51.366
  8470           5.997           1.033           4.764           4.382          51.431          49.463          51.426
  8480           5.997           1.033           4.764           4.387          51.492          49.524          51.487
  8490           5.997           1.033           4.764           4.392          51.553          49.584          51.547
  8500           5.997           1.033           4.764           4.397          51.613          49.645          51.608
  8510           5.997           1.033           4.764           4.402          51.674          49.706          51.669
  8520           5.997           1.033           4.764           4.407          51.735          49.766          51.729
  8530           5.997           1.033           4.764           4.413          51.795          49.827          51.790
  8540           5.997           1.033           4.764           4.418          51.856          49.888          51.851
  8550           5.997           1.033           4.764           4.423          51.917          49.948          51.911
  8560           5.997           1.033           4.764           4.428          51.977          50.009          51.972
  8570           5.997           1.033           4.764           4.433          52.038          50.070          52.033
  8580           5.997           1.033           4.764           4.438          52.099          50.130          52.093
  8590           5.997           1.033           4.764           4.444          52.159          50.191          52.154
  8600           5.997           1.033           4.764           4.449          52.220          50.251          52.215
  8610           5.997           1.033           4.764           4.454          52.281          50.312          52.275
  8620           5.997           1.033           4.764           4.459          52.341          50.373          52.336
  8630           5.997           1.033           4.764           4.464          52.402          50.433          52.397
  8640           5.997           1.033           4.764           4.469          52.463          50.494          52.457
  8650           5.997           1.033           4.764           4.475          52.523          50.555          52.518
  8660           5.997           1.033           4.764           4.480          52.584          50.615          52.579
  8670           5.997           1.033           4.764           4.485          52.645          50.676          52.639
  8680           5.997           1.033           4.764           4.490          52.705          50.737          52.700
  8690           5.997           1.033           4.764           4.495          52.766          50.797          52.761
  8700           5.997           1.033           4.764           4.500          52.826          50.858          52.821
  8710           5.997           1.033           4.764           4.506          52.887          50.919          52.882
  8720           5.997           1.033           4.764           4.511          52.948          50.979          52.943
  8730           5.997           1.033           4.764           4.516          53.008          51.040          53.003
  8740           5.997           1.033           4.764           4.521          53.069          51.101          53.064
  8750           5.997           1.033           4.764           4.526          53.130          51.161          53.125
  8760           5.997           1.033           4.764           4.531          53.190          51.222          53.185
  8770           5.997           1.033           4.764           4.537          53.251          51.283          53.246
  8780           5.997           1.033           4.764           4.542          53.312          51.343          53.307
  8790           5.997           1.033           4.764           4.547          53.372          51.404          53.367
  8800           5.997           1.033           4.764           4.552          53.433          51.465          53.428
  8810           5.997           1.033           4.764           4.557          53.494          51.525          53.489
  8820           5.997           1.033           4.764           4.562          53.554          51.586          53.549
  8830           5.997           1.033           4.764           4.568          53.615          51.647          53.610
  8840           5.997           1.033           4.764           4.573          53.676          51.707          53.671
  8850           5.997           1.033           4.764           4.578          53.736          51.768          53.731
  8860           5.997           1.033           4.764           4.583          53.797          51.829          53.792
  8870           5.997           1.033           4.764           4.588          53.858          51.889          53.853
  8880           5.997           1.033           4.764           4.593          53.918          51.950          53.913
  8890           5.997           1.033           4.764           4.599          53.979          52.011          53.974
  8900           5.997           1.033           4.764           4.604          54.040          52.071          54.035
  8910           5.997           1.033           4.764           4.609          54.100          52.132          54.095
  8920           5.997           1.033           4.764           4.614          54.161          52.193          54.156
  8930           5.997           1.033           4.764           4.619          54.222          52.253          54.217
  8940           5.997           1.033           4.764           4.624          54.282          52.314          54.277
  8950           5.997           1.033           4.764           4.630          54.343          52.374          54.338
  8960           5.997           1.033           4.764           4.635          54.404          52.435          54.399
  8970           5.997           1.033           4.764           4.640          54.464          52.496          54.459
  8980           5.997           1.033           4.764           4.645          54.525          52.556          54.520
  8990           5.997           1.033           4.764           4.650          54.586          52.617          54.581
  9000           5.997           1.033           4.764           4.655          54.646          52.678          54.641
  9010           5.997           1.033           4.764           4.661          54.707          52.738          54.702
  9020           5.997           1.033           4.764           4.666          54.768          52.799          54.763
  9030           5.997           1.033           4.764           4.671          54.828          52.860          54.823
  9040           5.997           1.033           4.764           4.676          54.889          52.920          54.884
  9050           5.997           1.033           4.764           4.681          54.950          52.981          54.945
  9060           5.997           1.033           4.764           4.686          55.010          53.042          55.005
  9070           5.997           1.033           4.764           4.692          55.071          53.102          55.066
  9080           5.997           1.033           4.764           4.697          55.132          53.163          55.127
  9090           5.997           1.033           4.764           4.702          55.192          53.224          55.187
  9100           5.997           1.033           4.764           4.707          55.253          53.284          55.248
  9110           5.997           1.033           4.764           4.712          55.313          53.345          55.309
  9120           5.997           1.033           4.764           4.717          55.374          53.406          55.369
  9130           5.997           1.033           4.764           4.723          55.435          53.466          55.430
  9140           5.997           1.033           4.764           4.728          55.495          53.527          55.491
  9150           5.997           1.033           4.764           4.733          55.556          53.588          55.551
  9160           5.997           1.033           4.764           4.738          55.617          53.648          55.612
  9170           5.997           1.033           4.764           4.743          55.677          53.709          55.673
  9180           5.997           1.033           4.764           4.748          55.738          53.770          55.733
  9190           5.997           1.033           4.764           4.754          55.799          53.830          55.794
  9200           5.997           1.033           4.764           4.759          55.859          53.891          55.855
  9210           5.997           1.033           4.764           4.764          55.920          53.952          55.915
  9220           5.997           1.033           4.764           4.769          55.981          54.012          55.976
  9230           5.997           1.033           4.764           4.774          56.041          54.073          56.037
  9240           5.997           1.033           4.764           4.779          56.102          54.134          56.097
  9250           5.998           1.033           4.764           4.785          56.163          54.194          56.158
  9260           5.998           1.033           4.764           4.790          56.223          54.255          56.219
  9270           5.998           1.033           4.764           4.795          56.284          54.316          56.279
  9280           5.998           1.033           4.764           4.800          56.345          54.376          56.340
  9290           5.998           1.033           4.764           4.805          56.405          54.437          56.401
  9300           5.998           1.033           4.764           4.810          56.466          54.498          56.461
  9310           5.998           1.033           4.764           4.816          56.527          54.558          56.522
  9320           5.998           1.033           4.764           4.821          56.587          54.619          56.583
  9330           5.998           1.033           4.764           4.826          56.648          54.680          56.643
  9340           5.998           1.033           4.765           4.831          56.709          54.740          56.704
  9350           5.998           1.033           4.765           4.836          56.769          54.801          56.765
  9360           5.998           1.033           4.765           4.841          56.830          54.862          56.825
  9370           5.998           1.033           4.765           4.847          56.891          54.922          56.886
  9380           5.998           1.033           4.765           4.852          56.951          54.983          56.947
  9390           5.998           1.033           4.765           4.857          57.012          55.044          57.007
  9400           5.998           1.033           4.765           4.862          57.073          55.104          57.068
  9410           5.998           1.033           4.765           4.867          57.133          55.165          57.129
  9420           5.998           1.033           4.765           4.872          57.194          55.226          57.189
  9430           5.998           1.033           4.765           4.878          57.255          55.286          57.250
  9440           5.998           1.033           4.765           4.883          57.315          55.347          57.311
  9450           5.998           1.033           4.765           4.888          57.376          55.408          57.371
  9460           5.998           1.033           4.765           4.893          57.437          55.468          57.432
  9470           5.998           1.033           4.765           4.898          57.497          55.529          57.493
  9480           5.998           1.033           4.765           4.903          57.558          55.590          57.553
  9490           5.998           1.033           4.765           4.909          57.619          55.650          57.614
  9500           5.998           1.033           4.765           4.914          57.679          55.711          57.675
  9510           5.998           1.033           4.765           4.919          57.740          55.771          57.735
  9520           5.998           1.033           4.765           4.924          57.801          55.832          57.796
  9530           5.998           1.033           4.765           4.929          57.861          55.893          57.857
  9540           5.998           1.033           4.765           4.934          57.922          55.953          57.917
  9550           5.998           1.033           4.765           4.940          57.983          56.014          57.978
  9560           5.998           1.033           4.765           4.945          58.043          56.075          58.039
  9570           5.998           1.033           4.765           4.950          58.104          56.135          58.099
  9580           5.998           1.033           4.765           4.955          58.165          56.196          58.160
  9590           5.998           1.033           4.765           4.960          58.225          56.257          58.221
  9600           5.998           1.033           4.765           4.966          58.286          56.317          58.281
  9610           5.998           1.033           4.765           4.971          58.347          56.378          58.342
  9620           5.998           1.033           4.765           4.976          58.407          56.439          58.403
  9630           5.998           1.033           4.765           4.981          58.468          56.499          58.463
  9640           5.998           1.033           4.765           4.986          58.529          56.560          58.524
  9650           5.998           1.033           4.765           4.991          58.589          56.621          58.585
  9660           5.998           1.033           4.765           4.997          58.650          56.681          58.645
  9670           5.998           1.033           4.765           5.002          58.711          56.742          58.706
  9680           5.998           1.033           4.765           5.007          58.771          56.803          58.767
  9690           5.998           1.033           4.765           5.012          58.832          56.863          58.827
  9700           5.998           1.033           4.765           5.017          58.893          56.924          58.888
  9710           5.998           1.033           4.765           5.022          58.953          56.985          58.949
  9720           5.998           1.033           4.765           5.028          59.014          57.045          59.009
  9730           5.998           1.033           4.765           5.033          59.075          57.106          59.070
  9740           5.998           1.033           4.765           5.038          59.135          57.167          59.131
  9750           5.998           1.033           4.765           5.043          59.196          57.227          59.191
  9760           5.998           1.033           4.765           5.048          59.257          57.288          59.252
  9770           5.998           1.033           4.765           5.053          59.317          57.349          59.313
  9780           5.998           1.033           4.765           5.059          59.378          57.409          59.373
  9790           5.998           1.033           4.765           5.064          59.438          57.470          59.434
  9800           5.998           1.033           4.765           5.069          59.499          57.531          59.495
  9810           5.998           1.033           4.765           5.074          59.560          57.591          59.555
  9820           5.998           1.033           4.765           5.079          59.620          57.652          59.616
  9830           5.998           1.033           4.765           5.084          59.681          57.713          59.677
  9840           5.998           1.033           4.765           5.090          59.742          57.773          59.737
  9850           5.998           1.033           4.765           5.095          59.802          57.834          59.798
  9860           5.998           1.033           4.765           5.100          59.863          57.895          59.859
  9870           5.998           1.033           4.765           5.105          59.924          57.955          59.919
  9880           5.998           1.033           4.765           5.110          59.984          58.016          59.980
  9890           5.998           1.033           4.765           5.115          60.045          58.077          60.041
  9900           5.998           1.033           4.765           5.121          60.106          58.137          60.101
  9910           5.998           1.033           4.765           5.126          60.166          58.198          60.162
  9920           5.998           1.033           4.765           5.131          60.227          58.259          60.223
  9930           5.998           1.033           4.765           5.136          60.288          58.319          60.283
  9940           5.998           1.033           4.765           5.141          60.348          58.380          60.344
  9950           5.998           1.033           4.765           5.146          60.409          58.441          60.405
  9960           5.998           1.033           4.765           5.152          60.470          58.501          60.465
  9970           5.998           1.033           4.765           5.157          60.530          58.562          60.526
  9980           5.998           1.033           4.765           5.162          60.591          58.620          60.587
  9990           5.998           1.033           4.765           5.167          60.652          58.691          60.647
 10000           5.998           1.033           4.765           5.172          60.712          58.714          60.708
