#   T(K)    C_v(k_B/fu)        Gamma     alpha_v*10^6(K^-1)   E_th(eV)                       P_th(GPa)
#                                                                         ----------------------------------------------
#                                                                          {sum G_i.U_iV}  {int G.C_v/V dT}    {G.U/V}
# ----------------------------------------------------------------------------------------------------------------------
    10           0.000           4.080           0.000           0.262           5.407           0.000          16.640
    20           0.001           4.136           0.007           0.262           5.407           0.000          16.872
    30           0.009           4.187           0.056           0.262           5.407           0.001          17.077
    40           0.024           4.182           0.147           0.262           5.408           0.002          17.060
    50           0.043           4.089           0.256           0.262           5.410           0.004          16.682
    60           0.066           3.896           0.374           0.262           5.413           0.008          15.898
    70           0.095           3.629           0.504           0.262           5.417           0.012          14.813
    80           0.133           3.334           0.649           0.262           5.422           0.018          13.612
    90           0.182           3.050           0.811           0.263           5.429           0.026          12.459
   100           0.243           2.799           0.993           0.263           5.437           0.035          11.441
   110           0.316           2.587           1.193           0.263           5.447           0.046          10.585
   120           0.400           2.412           1.411           0.263           5.459           0.059           9.882
   130           0.496           2.270           1.644           0.264           5.473           0.074           9.311
   140           0.601           2.153           1.891           0.264           5.489           0.091           8.849
   150           0.715           2.058           2.148           0.265           5.508           0.111           8.474
   160           0.835           1.979           2.414           0.265           5.529           0.133           8.170
   170           0.961           1.913           2.686           0.266           5.552           0.158           7.921
   180           1.091           1.858           2.962           0.267           5.578           0.185           7.719
   190           1.224           1.811           3.239           0.268           5.607           0.215           7.554
   200           1.359           1.772           3.517           0.269           5.638           0.247           7.420
   210           1.494           1.738           3.793           0.270           5.671           0.282           7.311
   220           1.629           1.709           4.067           0.272           5.707           0.319           7.223
   230           1.763           1.683           4.336           0.273           5.746           0.359           7.154
   240           1.896           1.661           4.601           0.275           5.787           0.401           7.101
   250           2.026           1.641           4.859           0.276           5.830           0.446           7.060
   260           2.154           1.624           5.112           0.278           5.876           0.493           7.032
   270           2.279           1.609           5.358           0.280           5.924           0.542           7.014
   280           2.401           1.595           5.597           0.282           5.974           0.593           7.004
   290           2.520           1.583           5.829           0.284           6.027           0.647           7.003
   300           2.635           1.572           6.053           0.286           6.081           0.702           7.009
   310           2.746           1.562           6.269           0.289           6.138           0.760           7.022
   320           2.854           1.554           6.478           0.291           6.196           0.819           7.040
   330           2.958           1.545           6.680           0.294           6.257           0.880           7.064
   340           3.059           1.538           6.874           0.296           6.319           0.944           7.092
   350           3.156           1.531           7.061           0.299           6.383           1.008           7.125
   360           3.249           1.525           7.241           0.302           6.449           1.075           7.162
   370           3.339           1.520           7.414           0.305           6.516           1.143           7.203
   380           3.425           1.515           7.580           0.308           6.585           1.212           7.247
   390           3.509           1.510           7.739           0.311           6.655           1.283           7.294
   400           3.589           1.505           7.892           0.314           6.727           1.356           7.345
   410           3.665           1.501           8.039           0.317           6.800           1.430           7.398
   420           3.739           1.498           8.181           0.320           6.874           1.505           7.454
   430           3.810           1.494           8.316           0.323           6.950           1.581           7.512
   440           3.878           1.491           8.446           0.326           7.027           1.659           7.572
   450           3.943           1.488           8.571           0.330           7.105           1.737           7.635
   460           4.006           1.485           8.691           0.333           7.184           1.817           7.699
   470           4.066           1.482           8.806           0.337           7.264           1.898           7.766
   480           4.124           1.480           8.916           0.340           7.346           1.980           7.834
   490           4.180           1.477           9.022           0.344           7.428           2.062           7.904
   500           4.233           1.475           9.124           0.347           7.511           2.146           7.975
   510           4.285           1.473           9.222           0.351           7.596           2.231           8.048
   520           4.334           1.471           9.316           0.355           7.681           2.316           8.123
   530           4.382           1.469           9.406           0.359           7.767           2.403           8.198
   540           4.427           1.468           9.493           0.362           7.853           2.490           8.276
   550           4.471           1.466           9.576           0.366           7.941           2.578           8.354
   560           4.513           1.464           9.656           0.370           8.029           2.666           8.433
   570           4.554           1.463           9.733           0.374           8.118           2.756           8.514
   580           4.593           1.462           9.808           0.378           8.208           2.846           8.595
   590           4.630           1.460           9.879           0.382           8.298           2.936           8.678
   600           4.667           1.459           9.948           0.386           8.389           3.028           8.761
   610           4.701           1.458          10.014           0.390           8.481           3.119           8.846
   620           4.735           1.457          10.078           0.394           8.573           3.212           8.931
   630           4.767           1.456          10.139           0.398           8.666           3.305           9.017
   640           4.799           1.455          10.198           0.402           8.759           3.399           9.104
   650           4.829           1.454          10.255           0.406           8.853           3.493           9.192
   660           4.858           1.453          10.310           0.411           8.947           3.587           9.281
   670           4.886           1.452          10.363           0.415           9.042           3.682           9.370
   680           4.913           1.451          10.415           0.419           9.137           3.778           9.460
   690           4.939           1.450          10.464           0.423           9.233           3.874           9.550
   700           4.964           1.449          10.512           0.427           9.329           3.971           9.641
   710           4.988           1.449          10.558           0.432           9.426           4.067           9.733
   720           5.012           1.448          10.602           0.436           9.523           4.165           9.825
   730           5.034           1.447          10.645           0.440           9.621           4.262           9.918
   740           5.056           1.447          10.687           0.445           9.719           4.360          10.011
   750           5.078           1.446          10.727           0.449           9.817           4.459          10.105
   760           5.098           1.445          10.766           0.454           9.915           4.558          10.200
   770           5.118           1.445          10.804           0.458          10.014           4.657          10.295
   780           5.137           1.444          10.840           0.462          10.114           4.756          10.390
   790           5.156           1.444          10.875           0.467          10.213           4.856          10.486
   800           5.174           1.443          10.909           0.471          10.313           4.956          10.582
   810           5.191           1.443          10.942           0.476          10.414           5.057          10.679
   820           5.208           1.442          10.974           0.480          10.514           5.157          10.776
   830           5.225           1.442          11.005           0.485          10.615           5.258          10.873
   840           5.241           1.441          11.036           0.489          10.716           5.360          10.971
   850           5.256           1.441          11.065           0.494          10.818           5.461          11.069
   860           5.271           1.440          11.093           0.498          10.919           5.563          11.167
   870           5.285           1.440          11.120           0.503          11.021           5.665          11.266
   880           5.299           1.440          11.147           0.507          11.123           5.767          11.365
   890           5.313           1.439          11.173           0.512          11.226           5.870          11.465
   900           5.326           1.439          11.198           0.516          11.329           5.973          11.565
   910           5.339           1.439          11.222           0.521          11.431           6.076          11.665
   920           5.352           1.438          11.246           0.526          11.535           6.179          11.765
   930           5.364           1.438          11.269           0.530          11.638           6.282          11.866
   940           5.376           1.438          11.291           0.535          11.741           6.386          11.967
   950           5.387           1.437          11.313           0.540          11.845           6.490          12.068
   960           5.398           1.437          11.334           0.544          11.949           6.594          12.169
   970           5.409           1.437          11.355           0.549          12.053           6.698          12.271
   980           5.420           1.436          11.374           0.554          12.157           6.802          12.373
   990           5.430           1.436          11.394           0.558          12.262           6.907          12.475
  1000           5.440           1.436          11.413           0.563          12.367           7.012          12.577
  1010           5.450           1.436          11.431           0.568          12.471           7.117          12.680
  1020           5.459           1.435          11.449           0.572          12.576           7.222          12.783
  1030           5.468           1.435          11.467           0.577          12.682           7.327          12.886
  1040           5.477           1.435          11.483           0.582          12.787           7.432          12.989
  1050           5.486           1.435          11.500           0.586          12.892           7.538          13.092
  1060           5.495           1.435          11.516           0.591          12.998           7.644          13.196
  1070           5.503           1.434          11.532           0.596          13.104           7.749          13.300
  1080           5.511           1.434          11.547           0.601          13.210           7.855          13.404
  1090           5.519           1.434          11.562           0.605          13.316           7.962          13.508
  1100           5.527           1.434          11.577           0.610          13.422           8.068          13.612
  1110           5.534           1.434          11.591           0.615          13.528           8.174          13.717
  1120           5.541           1.433          11.605           0.620          13.635           8.281          13.821
  1130           5.549           1.433          11.618           0.624          13.741           8.387          13.926
  1140           5.556           1.433          11.631           0.629          13.848           8.494          14.031
  1150           5.562           1.433          11.644           0.634          13.955           8.601          14.136
  1160           5.569           1.433          11.657           0.639          14.062           8.708          14.242
  1170           5.576           1.432          11.669           0.644          14.169           8.815          14.347
  1180           5.582           1.432          11.681           0.648          14.276           8.922          14.453
  1190           5.588           1.432          11.693           0.653          14.383           9.029          14.558
  1200           5.594           1.432          11.704           0.658          14.490           9.137          14.664
  1210           5.600           1.432          11.715           0.663          14.598           9.244          14.770
  1220           5.606           1.432          11.726           0.668          14.705           9.352          14.876
  1230           5.611           1.432          11.737           0.673          14.813           9.460          14.982
  1240           5.617           1.431          11.747           0.677          14.921           9.568          15.089
  1250           5.622           1.431          11.757           0.682          15.029           9.675          15.195
  1260           5.628           1.431          11.767           0.687          15.137           9.783          15.302
  1270           5.633           1.431          11.777           0.692          15.245           9.892          15.408
  1280           5.638           1.431          11.787           0.697          15.353          10.000          15.515
  1290           5.643           1.431          11.796           0.702          15.461          10.108          15.622
  1300           5.647           1.431          11.805           0.707          15.569          10.216          15.729
  1310           5.652           1.431          11.814           0.711          15.678          10.325          15.836
  1320           5.657           1.430          11.823           0.716          15.786          10.433          15.943
  1330           5.661           1.430          11.831           0.721          15.895          10.542          16.051
  1340           5.666           1.430          11.839           0.726          16.003          10.650          16.158
  1350           5.670           1.430          11.848           0.731          16.112          10.759          16.266
  1360           5.674           1.430          11.856           0.736          16.221          10.868          16.373
  1370           5.679           1.430          11.864           0.741          16.330          10.977          16.481
  1380           5.683           1.430          11.871           0.746          16.439          11.086          16.589
  1390           5.687           1.430          11.879           0.751          16.547          11.195          16.697
  1400           5.690           1.430          11.886           0.755          16.657          11.304          16.805
  1410           5.694           1.430          11.893           0.760          16.766          11.413          16.913
  1420           5.698           1.429          11.900           0.765          16.875          11.522          17.021
  1430           5.702           1.429          11.907           0.770          16.984          11.632          17.129
  1440           5.705           1.429          11.914           0.775          17.093          11.741          17.237
  1450           5.709           1.429          11.921           0.780          17.203          11.850          17.346
  1460           5.712           1.429          11.927           0.785          17.312          11.960          17.454
  1470           5.716           1.429          11.934           0.790          17.422          12.069          17.562
  1480           5.719           1.429          11.940           0.795          17.531          12.179          17.671
  1490           5.722           1.429          11.946           0.800          17.641          12.289          17.780
  1500           5.726           1.429          11.952           0.805          17.751          12.398          17.888
  1510           5.729           1.429          11.958           0.810          17.860          12.508          17.997
  1520           5.732           1.429          11.964           0.814          17.970          12.618          18.106
  1530           5.735           1.429          11.970           0.819          18.080          12.728          18.215
  1540           5.738           1.429          11.975           0.824          18.190          12.838          18.324
  1550           5.741           1.428          11.981           0.829          18.300          12.948          18.433
  1560           5.744           1.428          11.986           0.834          18.410          13.058          18.542
  1570           5.746           1.428          11.992           0.839          18.520          13.168          18.651
  1580           5.749           1.428          11.997           0.844          18.630          13.278          18.760
  1590           5.752           1.428          12.002           0.849          18.740          13.388          18.870
  1600           5.755           1.428          12.007           0.854          18.850          13.498          18.979
  1610           5.757           1.428          12.012           0.859          18.960          13.608          19.088
  1620           5.760           1.428          12.017           0.864          19.071          13.719          19.198
  1630           5.762           1.428          12.022           0.869          19.181          13.829          19.307
  1640           5.765           1.428          12.026           0.874          19.291          13.939          19.417
  1650           5.767           1.428          12.031           0.879          19.402          14.050          19.527
  1660           5.770           1.428          12.035           0.884          19.512          14.160          19.636
  1670           5.772           1.428          12.040           0.889          19.623          14.271          19.746
  1680           5.774           1.428          12.044           0.894          19.733          14.381          19.856
  1690           5.776           1.428          12.049           0.899          19.844          14.492          19.966
  1700           5.779           1.428          12.053           0.904          19.954          14.602          20.075
  1710           5.781           1.428          12.057           0.909          20.065          14.713          20.185
  1720           5.783           1.427          12.061           0.914          20.175          14.824          20.295
  1730           5.785           1.427          12.065           0.919          20.286          14.934          20.405
  1740           5.787           1.427          12.069           0.924          20.397          15.045          20.515
  1750           5.789           1.427          12.073           0.929          20.508          15.156          20.625
  1760           5.791           1.427          12.077           0.934          20.619          15.267          20.735
  1770           5.793           1.427          12.080           0.939          20.729          15.378          20.846
  1780           5.795           1.427          12.084           0.944          20.840          15.489          20.956
  1790           5.797           1.427          12.088           0.949          20.951          15.600          21.066
  1800           5.799           1.427          12.091           0.954          21.062          15.710          21.176
  1810           5.801           1.427          12.095           0.959          21.173          15.821          21.287
  1820           5.803           1.427          12.098           0.964          21.284          15.933          21.397
  1830           5.805           1.427          12.102           0.969          21.395          16.044          21.508
  1840           5.806           1.427          12.105           0.974          21.506          16.155          21.618
  1850           5.808           1.427          12.108           0.979          21.617          16.266          21.729
  1860           5.810           1.427          12.112           0.984          21.729          16.377          21.839
  1870           5.812           1.427          12.115           0.989          21.840          16.488          21.950
  1880           5.813           1.427          12.118           0.994          21.951          16.599          22.060
  1890           5.815           1.427          12.121           0.999          22.062          16.711          22.171
  1900           5.816           1.427          12.124           1.004          22.173          16.822          22.282
  1910           5.818           1.427          12.127           1.009          22.285          16.933          22.392
  1920           5.820           1.427          12.130           1.014          22.396          17.044          22.503
  1930           5.821           1.427          12.133           1.019          22.507          17.156          22.614
  1940           5.823           1.427          12.136           1.024          22.619          17.267          22.725
  1950           5.824           1.427          12.139           1.029          22.730          17.379          22.835
  1960           5.826           1.426          12.141           1.034          22.841          17.490          22.946
  1970           5.827           1.426          12.144           1.039          22.953          17.602          23.057
  1980           5.829           1.426          12.147           1.044          23.064          17.713          23.168
  1990           5.830           1.426          12.149           1.049          23.176          17.824          23.279
  2000           5.831           1.426          12.152           1.054          23.287          17.936          23.390
  2010           5.833           1.426          12.155           1.059          23.399          18.048          23.501
  2020           5.834           1.426          12.157           1.064          23.511          18.159          23.612
  2030           5.835           1.426          12.160           1.069          23.622          18.271          23.723
  2040           5.837           1.426          12.162           1.074          23.734          18.382          23.834
  2050           5.838           1.426          12.165           1.079          23.845          18.494          23.945
  2060           5.839           1.426          12.167           1.084          23.957          18.606          24.057
  2070           5.841           1.426          12.169           1.089          24.069          18.717          24.168
  2080           5.842           1.426          12.172           1.094          24.180          18.829          24.279
  2090           5.843           1.426          12.174           1.099          24.292          18.941          24.390
  2100           5.844           1.426          12.176           1.104          24.404          19.053          24.501
  2110           5.845           1.426          12.179           1.109          24.516          19.164          24.613
  2120           5.847           1.426          12.181           1.114          24.627          19.276          24.724
  2130           5.848           1.426          12.183           1.119          24.739          19.388          24.835
  2140           5.849           1.426          12.185           1.124          24.851          19.500          24.947
  2150           5.850           1.426          12.187           1.129          24.963          19.612          25.058
  2160           5.851           1.426          12.189           1.134          25.075          19.723          25.170
  2170           5.852           1.426          12.191           1.139          25.187          19.835          25.281
  2180           5.853           1.426          12.194           1.145          25.298          19.947          25.392
  2190           5.854           1.426          12.196           1.150          25.410          20.059          25.504
  2200           5.855           1.426          12.198           1.155          25.522          20.171          25.615
  2210           5.856           1.426          12.199           1.160          25.634          20.283          25.727
  2220           5.857           1.426          12.201           1.165          25.746          20.395          25.839
  2230           5.858           1.426          12.203           1.170          25.858          20.507          25.950
  2240           5.859           1.426          12.205           1.175          25.970          20.619          26.062
  2250           5.860           1.426          12.207           1.180          26.082          20.731          26.173
  2260           5.861           1.426          12.209           1.185          26.194          20.843          26.285
  2270           5.862           1.426          12.211           1.190          26.306          20.955          26.397
  2280           5.863           1.426          12.212           1.195          26.418          21.067          26.508
  2290           5.864           1.426          12.214           1.200          26.531          21.179          26.620
  2300           5.865           1.426          12.216           1.205          26.643          21.292          26.732
  2310           5.866           1.426          12.218           1.210          26.755          21.404          26.843
  2320           5.867           1.426          12.219           1.215          26.867          21.516          26.955
  2330           5.868           1.426          12.221           1.220          26.979          21.628          27.067
  2340           5.869           1.425          12.223           1.225          27.091          21.740          27.179
  2350           5.870           1.425          12.224           1.230          27.203          21.852          27.291
  2360           5.871           1.425          12.226           1.235          27.316          21.965          27.402
  2370           5.871           1.425          12.228           1.241          27.428          22.077          27.514
  2380           5.872           1.425          12.229           1.246          27.540          22.189          27.626
  2390           5.873           1.425          12.231           1.251          27.652          22.301          27.738
  2400           5.874           1.425          12.232           1.256          27.765          22.413          27.850
  2410           5.875           1.425          12.234           1.261          27.877          22.526          27.962
  2420           5.875           1.425          12.235           1.266          27.989          22.638          28.074
  2430           5.876           1.425          12.237           1.271          28.101          22.750          28.186
  2440           5.877           1.425          12.238           1.276          28.214          22.863          28.298
  2450           5.878           1.425          12.240           1.281          28.326          22.975          28.410
  2460           5.879           1.425          12.241           1.286          28.438          23.087          28.522
  2470           5.879           1.425          12.242           1.291          28.551          23.200          28.634
  2480           5.880           1.425          12.244           1.296          28.663          23.312          28.746
  2490           5.881           1.425          12.245           1.301          28.775          23.424          28.858
  2500           5.881           1.425          12.247           1.306          28.888          23.537          28.970
  2510           5.882           1.425          12.248           1.311          29.000          23.649          29.082
  2520           5.883           1.425          12.249           1.316          29.113          23.762          29.194
  2530           5.884           1.425          12.251           1.322          29.225          23.874          29.306
  2540           5.884           1.425          12.252           1.327          29.337          23.987          29.418
  2550           5.885           1.425          12.253           1.332          29.450          24.099          29.530
  2560           5.886           1.425          12.254           1.337          29.562          24.211          29.642
  2570           5.886           1.425          12.256           1.342          29.675          24.324          29.754
  2580           5.887           1.425          12.257           1.347          29.787          24.436          29.867
  2590           5.888           1.425          12.258           1.352          29.900          24.549          29.979
  2600           5.888           1.425          12.259           1.357          30.012          24.661          30.091
  2610           5.889           1.425          12.261           1.362          30.125          24.774          30.203
  2620           5.889           1.425          12.262           1.367          30.237          24.886          30.315
  2630           5.890           1.425          12.263           1.372          30.350          24.999          30.428
  2640           5.891           1.425          12.264           1.377          30.462          25.112          30.540
  2650           5.891           1.425          12.265           1.382          30.575          25.224          30.652
  2660           5.892           1.425          12.266           1.388          30.688          25.337          30.764
  2670           5.893           1.425          12.267           1.393          30.800          25.449          30.877
  2680           5.893           1.425          12.269           1.398          30.913          25.562          30.989
  2690           5.894           1.425          12.270           1.403          31.025          25.675          31.101
  2700           5.894           1.425          12.271           1.408          31.138          25.787          31.214
  2710           5.895           1.425          12.272           1.413          31.251          25.900          31.326
  2720           5.895           1.425          12.273           1.418          31.363          26.012          31.438
  2730           5.896           1.425          12.274           1.423          31.476          26.125          31.551
  2740           5.896           1.425          12.275           1.428          31.589          26.238          31.663
  2750           5.897           1.425          12.276           1.433          31.701          26.350          31.776
  2760           5.898           1.425          12.277           1.438          31.814          26.463          31.888
  2770           5.898           1.425          12.278           1.443          31.927          26.576          32.000
  2780           5.899           1.425          12.279           1.448          32.039          26.688          32.113
  2790           5.899           1.425          12.280           1.454          32.152          26.801          32.225
  2800           5.900           1.425          12.281           1.459          32.265          26.914          32.338
  2810           5.900           1.425          12.282           1.464          32.377          27.027          32.450
  2820           5.901           1.425          12.283           1.469          32.490          27.139          32.563
  2830           5.901           1.425          12.284           1.474          32.603          27.252          32.675
  2840           5.902           1.425          12.285           1.479          32.716          27.365          32.787
  2850           5.902           1.425          12.286           1.484          32.828          27.478          32.900
  2860           5.903           1.425          12.287           1.489          32.941          27.590          33.012
  2870           5.903           1.425          12.288           1.494          33.054          27.703          33.125
  2880           5.904           1.425          12.288           1.499          33.167          27.816          33.238
  2890           5.904           1.425          12.289           1.504          33.279          27.929          33.350
  2900           5.905           1.425          12.290           1.509          33.392          28.041          33.463
  2910           5.905           1.425          12.291           1.515          33.505          28.154          33.575
  2920           5.905           1.425          12.292           1.520          33.618          28.267          33.688
  2930           5.906           1.425          12.293           1.525          33.731          28.380          33.800
  2940           5.906           1.425          12.294           1.530          33.843          28.493          33.913
  2950           5.907           1.425          12.294           1.535          33.956          28.605          34.025
  2960           5.907           1.425          12.295           1.540          34.069          28.718          34.138
  2970           5.908           1.425          12.296           1.545          34.182          28.831          34.251
  2980           5.908           1.425          12.297           1.550          34.295          28.944          34.363
  2990           5.909           1.425          12.298           1.555          34.408          29.057          34.476
  3000           5.909           1.425          12.298           1.560          34.520          29.170          34.589
  3010           5.909           1.425          12.299           1.565          34.633          29.283          34.701
  3020           5.910           1.425          12.300           1.571          34.746          29.396          34.814
  3030           5.910           1.425          12.301           1.576          34.859          29.508          34.927
  3040           5.911           1.425          12.302           1.581          34.972          29.621          35.039
  3050           5.911           1.425          12.302           1.586          35.085          29.734          35.152
  3060           5.911           1.425          12.303           1.591          35.198          29.847          35.265
  3070           5.912           1.425          12.304           1.596          35.311          29.960          35.377
  3080           5.912           1.425          12.305           1.601          35.424          30.073          35.490
  3090           5.913           1.424          12.305           1.606          35.537          30.186          35.603
  3100           5.913           1.424          12.306           1.611          35.650          30.299          35.715
  3110           5.913           1.424          12.307           1.616          35.762          30.412          35.828
  3120           5.914           1.424          12.307           1.622          35.875          30.525          35.941
  3130           5.914           1.424          12.308           1.627          35.988          30.638          36.054
  3140           5.914           1.424          12.309           1.632          36.101          30.751          36.166
  3150           5.915           1.424          12.310           1.637          36.214          30.864          36.279
  3160           5.915           1.424          12.310           1.642          36.327          30.977          36.392
  3170           5.915           1.424          12.311           1.647          36.440          31.090          36.505
  3180           5.916           1.424          12.312           1.652          36.553          31.203          36.617
  3190           5.916           1.424          12.312           1.657          36.666          31.316          36.730
  3200           5.917           1.424          12.313           1.662          36.779          31.429          36.843
  3210           5.917           1.424          12.313           1.667          36.892          31.542          36.956
  3220           5.917           1.424          12.314           1.673          37.005          31.655          37.069
  3230           5.918           1.424          12.315           1.678          37.118          31.768          37.181
  3240           5.918           1.424          12.315           1.683          37.231          31.881          37.294
  3250           5.918           1.424          12.316           1.688          37.344          31.994          37.407
  3260           5.919           1.424          12.317           1.693          37.457          32.107          37.520
  3270           5.919           1.424          12.317           1.698          37.570          32.220          37.633
  3280           5.919           1.424          12.318           1.703          37.683          32.333          37.746
  3290           5.920           1.424          12.318           1.708          37.797          32.446          37.859
  3300           5.920           1.424          12.319           1.713          37.910          32.559          37.971
  3310           5.920           1.424          12.320           1.718          38.023          32.672          38.084
  3320           5.920           1.424          12.320           1.724          38.136          32.785          38.197
  3330           5.921           1.424          12.321           1.729          38.249          32.898          38.310
  3340           5.921           1.424          12.321           1.734          38.362          33.011          38.423
  3350           5.921           1.424          12.322           1.739          38.475          33.124          38.536
  3360           5.922           1.424          12.323           1.744          38.588          33.237          38.649
  3370           5.922           1.424          12.323           1.749          38.701          33.351          38.762
  3380           5.922           1.424          12.324           1.754          38.814          33.464          38.875
  3390           5.923           1.424          12.324           1.759          38.927          33.577          38.988
  3400           5.923           1.424          12.325           1.764          39.040          33.690          39.100
  3410           5.923           1.424          12.325           1.769          39.154          33.803          39.213
  3420           5.923           1.424          12.326           1.775          39.267          33.916          39.326
  3430           5.924           1.424          12.326           1.780          39.380          34.029          39.439
  3440           5.924           1.424          12.327           1.785          39.493          34.142          39.552
  3450           5.924           1.424          12.327           1.790          39.606          34.255          39.665
  3460           5.925           1.424          12.328           1.795          39.719          34.369          39.778
  3470           5.925           1.424          12.328           1.800          39.832          34.482          39.891
  3480           5.925           1.424          12.329           1.805          39.945          34.595          40.004
  3490           5.925           1.424          12.329           1.810          40.059          34.708          40.117
  3500           5.926           1.424          12.330           1.815          40.172          34.821          40.230
  3510           5.926           1.424          12.330           1.820          40.285          34.934          40.343
  3520           5.926           1.424          12.331           1.826          40.398          35.048          40.456
  3530           5.926           1.424          12.331           1.831          40.511          35.161          40.569
  3540           5.927           1.424          12.332           1.836          40.624          35.274          40.682
  3550           5.927           1.424          12.332           1.841          40.738          35.387          40.795
  3560           5.927           1.424          12.333           1.846          40.851          35.500          40.908
  3570           5.927           1.424          12.333           1.851          40.964          35.613          41.021
  3580           5.928           1.424          12.334           1.856          41.077          35.727          41.134
  3590           5.928           1.424          12.334           1.861          41.190          35.840          41.247
  3600           5.928           1.424          12.335           1.866          41.304          35.953          41.360
  3610           5.928           1.424          12.335           1.872          41.417          36.066          41.473
  3620           5.929           1.424          12.336           1.877          41.530          36.179          41.586
  3630           5.929           1.424          12.336           1.882          41.643          36.293          41.699
  3640           5.929           1.424          12.337           1.887          41.756          36.406          41.812
  3650           5.929           1.424          12.337           1.892          41.870          36.519          41.926
  3660           5.930           1.424          12.337           1.897          41.983          36.632          42.039
  3670           5.930           1.424          12.338           1.902          42.096          36.746          42.152
  3680           5.930           1.424          12.338           1.907          42.209          36.859          42.265
  3690           5.930           1.424          12.339           1.912          42.323          36.972          42.378
  3700           5.930           1.424          12.339           1.918          42.436          37.085          42.491
  3710           5.931           1.424          12.340           1.923          42.549          37.199          42.604
  3720           5.931           1.424          12.340           1.928          42.662          37.312          42.717
  3730           5.931           1.424          12.340           1.933          42.776          37.425          42.830
  3740           5.931           1.424          12.341           1.938          42.889          37.538          42.943
  3750           5.932           1.424          12.341           1.943          43.002          37.652          43.057
  3760           5.932           1.424          12.342           1.948          43.115          37.765          43.170
  3770           5.932           1.424          12.342           1.953          43.229          37.878          43.283
  3780           5.932           1.424          12.342           1.958          43.342          37.991          43.396
  3790           5.932           1.424          12.343           1.964          43.455          38.105          43.509
  3800           5.933           1.424          12.343           1.969          43.568          38.218          43.622
  3810           5.933           1.424          12.344           1.974          43.682          38.331          43.735
  3820           5.933           1.424          12.344           1.979          43.795          38.445          43.848
  3830           5.933           1.424          12.344           1.984          43.908          38.558          43.962
  3840           5.933           1.424          12.345           1.989          44.022          38.671          44.075
  3850           5.934           1.424          12.345           1.994          44.135          38.784          44.188
  3860           5.934           1.424          12.346           1.999          44.248          38.898          44.301
  3870           5.934           1.424          12.346           2.004          44.362          39.011          44.414
  3880           5.934           1.424          12.346           2.010          44.475          39.124          44.527
  3890           5.934           1.424          12.347           2.015          44.588          39.238          44.641
  3900           5.935           1.424          12.347           2.020          44.701          39.351          44.754
  3910           5.935           1.424          12.347           2.025          44.815          39.464          44.867
  3920           5.935           1.424          12.348           2.030          44.928          39.578          44.980
  3930           5.935           1.424          12.348           2.035          45.041          39.691          45.093
  3940           5.935           1.424          12.348           2.040          45.155          39.804          45.207
  3950           5.936           1.424          12.349           2.045          45.268          39.918          45.320
  3960           5.936           1.424          12.349           2.050          45.381          40.031          45.433
  3970           5.936           1.424          12.349           2.056          45.495          40.144          45.546
  3980           5.936           1.424          12.350           2.061          45.608          40.258          45.659
  3990           5.936           1.424          12.350           2.066          45.721          40.371          45.773
  4000           5.936           1.424          12.350           2.071          45.835          40.484          45.886
  4010           5.937           1.424          12.351           2.076          45.948          40.598          45.999
  4020           5.937           1.424          12.351           2.081          46.061          40.711          46.112
  4030           5.937           1.424          12.351           2.086          46.175          40.824          46.225
  4040           5.937           1.424          12.352           2.091          46.288          40.938          46.339
  4050           5.937           1.424          12.352           2.097          46.402          41.051          46.452
  4060           5.938           1.424          12.352           2.102          46.515          41.164          46.565
  4070           5.938           1.424          12.353           2.107          46.628          41.278          46.678
  4080           5.938           1.424          12.353           2.112          46.742          41.391          46.792
  4090           5.938           1.424          12.353           2.117          46.855          41.505          46.905
  4100           5.938           1.424          12.354           2.122          46.968          41.618          47.018
  4110           5.938           1.424          12.354           2.127          47.082          41.731          47.131
  4120           5.939           1.424          12.354           2.132          47.195          41.845          47.245
  4130           5.939           1.424          12.355           2.137          47.309          41.958          47.358
  4140           5.939           1.424          12.355           2.143          47.422          42.071          47.471
  4150           5.939           1.424          12.355           2.148          47.535          42.185          47.584
  4160           5.939           1.424          12.356           2.153          47.649          42.298          47.698
  4170           5.939           1.424          12.356           2.158          47.762          42.412          47.811
  4180           5.939           1.424          12.356           2.163          47.876          42.525          47.924
  4190           5.940           1.424          12.356           2.168          47.989          42.638          48.038
  4200           5.940           1.424          12.357           2.173          48.102          42.752          48.151
  4210           5.940           1.424          12.357           2.178          48.216          42.865          48.264
  4220           5.940           1.424          12.357           2.184          48.329          42.979          48.377
  4230           5.940           1.424          12.358           2.189          48.443          43.092          48.491
  4240           5.940           1.424          12.358           2.194          48.556          43.206          48.604
  4250           5.941           1.424          12.358           2.199          48.669          43.319          48.717
  4260           5.941           1.424          12.358           2.204          48.783          43.432          48.831
  4270           5.941           1.424          12.359           2.209          48.896          43.546          48.944
  4280           5.941           1.424          12.359           2.214          49.010          43.659          49.057
  4290           5.941           1.424          12.359           2.219          49.123          43.773          49.171
  4300           5.941           1.424          12.360           2.224          49.236          43.886          49.284
  4310           5.941           1.424          12.360           2.230          49.350          43.999          49.397
  4320           5.942           1.424          12.360           2.235          49.463          44.113          49.511
  4330           5.942           1.424          12.360           2.240          49.577          44.226          49.624
  4340           5.942           1.424          12.361           2.245          49.690          44.340          49.737
  4350           5.942           1.424          12.361           2.250          49.804          44.453          49.851
  4360           5.942           1.424          12.361           2.255          49.917          44.567          49.964
  4370           5.942           1.424          12.361           2.260          50.031          44.680          50.077
  4380           5.942           1.424          12.362           2.265          50.144          44.794          50.191
  4390           5.943           1.424          12.362           2.271          50.257          44.907          50.304
  4400           5.943           1.424          12.362           2.276          50.371          45.020          50.417
  4410           5.943           1.424          12.362           2.281          50.484          45.134          50.531
  4420           5.943           1.424          12.363           2.286          50.598          45.247          50.644
  4430           5.943           1.424          12.363           2.291          50.711          45.361          50.757
  4440           5.943           1.424          12.363           2.296          50.825          45.474          50.871
  4450           5.943           1.424          12.363           2.301          50.938          45.588          50.984
  4460           5.943           1.424          12.364           2.306          51.052          45.701          51.097
  4470           5.944           1.424          12.364           2.312          51.165          45.815          51.211
  4480           5.944           1.424          12.364           2.317          51.279          45.928          51.324
  4490           5.944           1.424          12.364           2.322          51.392          46.042          51.437
  4500           5.944           1.424          12.365           2.327          51.506          46.155          51.551
  4510           5.944           1.424          12.365           2.332          51.619          46.269          51.664
  4520           5.944           1.424          12.365           2.337          51.733          46.382          51.778
  4530           5.944           1.424          12.365           2.342          51.846          46.496          51.891
  4540           5.944           1.424          12.365           2.347          51.959          46.609          52.004
  4550           5.945           1.424          12.366           2.353          52.073          46.723          52.118
  4560           5.945           1.424          12.366           2.358          52.186          46.836          52.231
  4570           5.945           1.424          12.366           2.363          52.300          46.950          52.345
  4580           5.945           1.424          12.366           2.368          52.413          47.063          52.458
  4590           5.945           1.424          12.367           2.373          52.527          47.177          52.571
  4600           5.945           1.424          12.367           2.378          52.640          47.290          52.685
  4610           5.945           1.424          12.367           2.383          52.754          47.404          52.798
  4620           5.945           1.424          12.367           2.388          52.867          47.517          52.912
  4630           5.946           1.424          12.368           2.393          52.981          47.631          53.025
  4640           5.946           1.424          12.368           2.399          53.094          47.744          53.138
  4650           5.946           1.424          12.368           2.404          53.208          47.858          53.252
  4660           5.946           1.424          12.368           2.409          53.321          47.971          53.365
  4670           5.946           1.424          12.368           2.414          53.435          48.085          53.479
  4680           5.946           1.424          12.369           2.419          53.548          48.198          53.592
  4690           5.946           1.424          12.369           2.424          53.662          48.312          53.705
  4700           5.946           1.424          12.369           2.429          53.776          48.425          53.819
  4710           5.946           1.424          12.369           2.434          53.889          48.539          53.932
  4720           5.947           1.424          12.369           2.440          54.003          48.652          54.046
  4730           5.947           1.424          12.370           2.445          54.116          48.766          54.159
  4740           5.947           1.424          12.370           2.450          54.230          48.879          54.273
  4750           5.947           1.424          12.370           2.455          54.343          48.993          54.386
  4760           5.947           1.424          12.370           2.460          54.457          49.106          54.499
  4770           5.947           1.424          12.370           2.465          54.570          49.220          54.613
  4780           5.947           1.424          12.371           2.470          54.684          49.333          54.726
  4790           5.947           1.424          12.371           2.475          54.797          49.447          54.840
  4800           5.947           1.424          12.371           2.481          54.911          49.560          54.953
  4810           5.947           1.424          12.371           2.486          55.024          49.674          55.067
  4820           5.948           1.424          12.371           2.491          55.138          49.787          55.180
  4830           5.948           1.424          12.372           2.496          55.251          49.901          55.294
  4840           5.948           1.424          12.372           2.501          55.365          50.015          55.407
  4850           5.948           1.424          12.372           2.506          55.478          50.128          55.521
  4860           5.948           1.424          12.372           2.511          55.592          50.242          55.634
  4870           5.948           1.424          12.372           2.516          55.706          50.355          55.747
  4880           5.948           1.424          12.373           2.522          55.819          50.469          55.861
  4890           5.948           1.424          12.373           2.527          55.933          50.582          55.974
  4900           5.948           1.424          12.373           2.532          56.046          50.696          56.088
  4910           5.948           1.424          12.373           2.537          56.160          50.809          56.201
  4920           5.949           1.424          12.373           2.542          56.273          50.923          56.315
  4930           5.949           1.424          12.373           2.547          56.387          51.037          56.428
  4940           5.949           1.424          12.374           2.552          56.500          51.150          56.542
  4950           5.949           1.424          12.374           2.557          56.614          51.264          56.655
  4960           5.949           1.424          12.374           2.563          56.728          51.377          56.769
  4970           5.949           1.424          12.374           2.568          56.841          51.491          56.882
  4980           5.949           1.424          12.374           2.573          56.955          51.604          56.996
  4990           5.949           1.424          12.374           2.578          57.068          51.718          57.109
  5000           5.949           1.424          12.375           2.583          57.182          51.831          57.223
  5010           5.949           1.424          12.375           2.588          57.295          51.945          57.336
  5020           5.949           1.424          12.375           2.593          57.409          52.059          57.450
  5030           5.950           1.424          12.375           2.599          57.523          52.172          57.563
  5040           5.950           1.424          12.375           2.604          57.636          52.286          57.677
  5050           5.950           1.424          12.376           2.609          57.750          52.399          57.790
  5060           5.950           1.424          12.376           2.614          57.863          52.513          57.904
  5070           5.950           1.424          12.376           2.619          57.977          52.627          58.017
  5080           5.950           1.424          12.376           2.624          58.090          52.740          58.131
  5090           5.950           1.424          12.376           2.629          58.204          52.854          58.244
  5100           5.950           1.424          12.376           2.634          58.318          52.967          58.358
  5110           5.950           1.424          12.376           2.640          58.431          53.081          58.471
  5120           5.950           1.424          12.377           2.645          58.545          53.194          58.585
  5130           5.950           1.424          12.377           2.650          58.658          53.308          58.698
  5140           5.951           1.424          12.377           2.655          58.772          53.422          58.812
  5150           5.951           1.424          12.377           2.660          58.886          53.535          58.925
  5160           5.951           1.424          12.377           2.665          58.999          53.649          59.039
  5170           5.951           1.424          12.377           2.670          59.113          53.762          59.152
  5180           5.951           1.424          12.378           2.675          59.226          53.876          59.266
  5190           5.951           1.424          12.378           2.681          59.340          53.990          59.379
  5200           5.951           1.424          12.378           2.686          59.454          54.103          59.493
  5210           5.951           1.424          12.378           2.691          59.567          54.217          59.606
  5220           5.951           1.424          12.378           2.696          59.681          54.330          59.720
  5230           5.951           1.424          12.378           2.701          59.794          54.444          59.833
  5240           5.951           1.424          12.379           2.706          59.908          54.558          59.947
  5250           5.951           1.424          12.379           2.711          60.022          54.671          60.060
  5260           5.952           1.424          12.379           2.716          60.135          54.785          60.174
  5270           5.952           1.424          12.379           2.722          60.249          54.898          60.287
  5280           5.952           1.424          12.379           2.727          60.362          55.012          60.401
  5290           5.952           1.424          12.379           2.732          60.476          55.126          60.515
  5300           5.952           1.424          12.379           2.737          60.590          55.239          60.628
  5310           5.952           1.424          12.380           2.742          60.703          55.353          60.742
  5320           5.952           1.424          12.380           2.747          60.817          55.467          60.855
  5330           5.952           1.424          12.380           2.752          60.930          55.580          60.969
  5340           5.952           1.424          12.380           2.757          61.044          55.694          61.082
  5350           5.952           1.424          12.380           2.763          61.158          55.807          61.196
  5360           5.952           1.424          12.380           2.768          61.271          55.921          61.309
  5370           5.952           1.424          12.380           2.773          61.385          56.035          61.423
  5380           5.952           1.424          12.381           2.778          61.499          56.148          61.536
  5390           5.952           1.424          12.381           2.783          61.612          56.262          61.650
  5400           5.953           1.424          12.381           2.788          61.726          56.375          61.764
  5410           5.953           1.424          12.381           2.793          61.839          56.489          61.877
  5420           5.953           1.424          12.381           2.799          61.953          56.603          61.991
  5430           5.953           1.424          12.381           2.804          62.067          56.716          62.104
  5440           5.953           1.424          12.381           2.809          62.180          56.830          62.218
  5450           5.953           1.424          12.381           2.814          62.294          56.944          62.331
  5460           5.953           1.424          12.382           2.819          62.408          57.057          62.445
  5470           5.953           1.424          12.382           2.824          62.521          57.171          62.558
  5480           5.953           1.424          12.382           2.829          62.635          57.285          62.672
  5490           5.953           1.424          12.382           2.834          62.748          57.398          62.786
  5500           5.953           1.424          12.382           2.840          62.862          57.512          62.899
  5510           5.953           1.424          12.382           2.845          62.976          57.625          63.013
  5520           5.953           1.424          12.382           2.850          63.089          57.739          63.126
  5530           5.953           1.424          12.383           2.855          63.203          57.853          63.240
  5540           5.954           1.424          12.383           2.860          63.317          57.966          63.353
  5550           5.954           1.424          12.383           2.865          63.430          58.080          63.467
  5560           5.954           1.424          12.383           2.870          63.544          58.194          63.581
  5570           5.954           1.424          12.383           2.875          63.658          58.307          63.694
  5580           5.954           1.424          12.383           2.881          63.771          58.421          63.808
  5590           5.954           1.424          12.383           2.886          63.885          58.535          63.921
  5600           5.954           1.424          12.383           2.891          63.999          58.648          64.035
  5610           5.954           1.424          12.384           2.896          64.112          58.762          64.149
  5620           5.954           1.424          12.384           2.901          64.226          58.876          64.262
  5630           5.954           1.424          12.384           2.906          64.340          58.989          64.376
  5640           5.954           1.424          12.384           2.911          64.453          59.103          64.489
  5650           5.954           1.424          12.384           2.917          64.567          59.217          64.603
  5660           5.954           1.424          12.384           2.922          64.680          59.330          64.716
  5670           5.954           1.424          12.384           2.927          64.794          59.444          64.830
  5680           5.954           1.424          12.384           2.932          64.908          59.557          64.944
  5690           5.955           1.424          12.384           2.937          65.021          59.671          65.057
  5700           5.955           1.424          12.385           2.942          65.135          59.785          65.171
  5710           5.955           1.424          12.385           2.947          65.249          59.898          65.284
  5720           5.955           1.424          12.385           2.952          65.362          60.012          65.398
  5730           5.955           1.424          12.385           2.958          65.476          60.126          65.512
  5740           5.955           1.424          12.385           2.963          65.590          60.239          65.625
  5750           5.955           1.424          12.385           2.968          65.703          60.353          65.739
  5760           5.955           1.424          12.385           2.973          65.817          60.467          65.852
  5770           5.955           1.424          12.385           2.978          65.931          60.580          65.966
  5780           5.955           1.424          12.386           2.983          66.044          60.694          66.080
  5790           5.955           1.424          12.386           2.988          66.158          60.808          66.193
  5800           5.955           1.424          12.386           2.993          66.272          60.921          66.307
  5810           5.955           1.424          12.386           2.999          66.385          61.035          66.421
  5820           5.955           1.424          12.386           3.004          66.499          61.149          66.534
  5830           5.955           1.424          12.386           3.009          66.613          61.262          66.648
  5840           5.955           1.424          12.386           3.014          66.726          61.376          66.761
  5850           5.955           1.424          12.386           3.019          66.840          61.490          66.875
  5860           5.956           1.424          12.386           3.024          66.954          61.604          66.989
  5870           5.956           1.424          12.386           3.029          67.068          61.717          67.102
  5880           5.956           1.424          12.387           3.035          67.181          61.831          67.216
  5890           5.956           1.424          12.387           3.040          67.295          61.945          67.329
  5900           5.956           1.424          12.387           3.045          67.409          62.058          67.443
  5910           5.956           1.424          12.387           3.050          67.522          62.172          67.557
  5920           5.956           1.424          12.387           3.055          67.636          62.286          67.670
  5930           5.956           1.424          12.387           3.060          67.750          62.399          67.784
  5940           5.956           1.424          12.387           3.065          67.863          62.513          67.898
  5950           5.956           1.424          12.387           3.070          67.977          62.627          68.011
  5960           5.956           1.424          12.387           3.076          68.091          62.740          68.125
  5970           5.956           1.424          12.388           3.081          68.204          62.854          68.238
  5980           5.956           1.424          12.388           3.086          68.318          62.968          68.352
  5990           5.956           1.424          12.388           3.091          68.432          63.081          68.466
  6000           5.956           1.424          12.388           3.096          68.545          63.195          68.579
  6010           5.956           1.424          12.388           3.101          68.659          63.309          68.693
  6020           5.956           1.424          12.388           3.106          68.773          63.422          68.807
  6030           5.956           1.424          12.388           3.112          68.886          63.536          68.920
  6040           5.957           1.424          12.388           3.117          69.000          63.650          69.034
  6050           5.957           1.424          12.388           3.122          69.114          63.764          69.148
  6060           5.957           1.424          12.388           3.127          69.228          63.877          69.261
  6070           5.957           1.424          12.389           3.132          69.341          63.991          69.375
  6080           5.957           1.424          12.389           3.137          69.455          64.105          69.488
  6090           5.957           1.424          12.389           3.142          69.569          64.218          69.602
  6100           5.957           1.424          12.389           3.147          69.682          64.332          69.716
  6110           5.957           1.424          12.389           3.153          69.796          64.446          69.829
  6120           5.957           1.424          12.389           3.158          69.910          64.559          69.943
  6130           5.957           1.424          12.389           3.163          70.023          64.673          70.057
  6140           5.957           1.424          12.389           3.168          70.137          64.787          70.170
  6150           5.957           1.424          12.389           3.173          70.251          64.901          70.284
  6160           5.957           1.424          12.389           3.178          70.365          65.014          70.398
  6170           5.957           1.423          12.389           3.183          70.478          65.128          70.511
  6180           5.957           1.423          12.390           3.189          70.592          65.242          70.625
  6190           5.957           1.423          12.390           3.194          70.706          65.355          70.739
  6200           5.957           1.423          12.390           3.199          70.819          65.469          70.852
  6210           5.957           1.423          12.390           3.204          70.933          65.583          70.966
  6220           5.957           1.423          12.390           3.209          71.047          65.697          71.080
  6230           5.957           1.423          12.390           3.214          71.161          65.810          71.193
  6240           5.957           1.423          12.390           3.219          71.274          65.924          71.307
  6250           5.958           1.423          12.390           3.224          71.388          66.038          71.421
  6260           5.958           1.423          12.390           3.230          71.502          66.151          71.534
  6270           5.958           1.423          12.390           3.235          71.615          66.265          71.648
  6280           5.958           1.423          12.390           3.240          71.729          66.379          71.762
  6290           5.958           1.423          12.391           3.245          71.843          66.493          71.875
  6300           5.958           1.423          12.391           3.250          71.957          66.606          71.989
  6310           5.958           1.423          12.391           3.255          72.070          66.720          72.103
  6320           5.958           1.423          12.391           3.260          72.184          66.834          72.216
  6330           5.958           1.423          12.391           3.266          72.298          66.947          72.330
  6340           5.958           1.423          12.391           3.271          72.411          67.061          72.444
  6350           5.958           1.423          12.391           3.276          72.525          67.175          72.557
  6360           5.958           1.423          12.391           3.281          72.639          67.289          72.671
  6370           5.958           1.423          12.391           3.286          72.753          67.402          72.785
  6380           5.958           1.423          12.391           3.291          72.866          67.516          72.898
  6390           5.958           1.423          12.391           3.296          72.980          67.630          73.012
  6400           5.958           1.423          12.391           3.301          73.094          67.743          73.126
  6410           5.958           1.423          12.392           3.307          73.207          67.857          73.239
  6420           5.958           1.423          12.392           3.312          73.321          67.971          73.353
  6430           5.958           1.423          12.392           3.317          73.435          68.085          73.467
  6440           5.958           1.423          12.392           3.322          73.549          68.198          73.580
  6450           5.958           1.423          12.392           3.327          73.662          68.312          73.694
  6460           5.958           1.423          12.392           3.332          73.776          68.426          73.808
  6470           5.959           1.423          12.392           3.337          73.890          68.540          73.921
  6480           5.959           1.423          12.392           3.343          74.004          68.653          74.035
  6490           5.959           1.423          12.392           3.348          74.117          68.767          74.149
  6500           5.959           1.423          12.392           3.353          74.231          68.881          74.262
  6510           5.959           1.423          12.392           3.358          74.345          68.994          74.376
  6520           5.959           1.423          12.392           3.363          74.458          69.108          74.490
  6530           5.959           1.423          12.393           3.368          74.572          69.222          74.603
  6540           5.959           1.423          12.393           3.373          74.686          69.336          74.717
  6550           5.959           1.423          12.393           3.378          74.800          69.449          74.831
  6560           5.959           1.423          12.393           3.384          74.913          69.563          74.944
  6570           5.959           1.423          12.393           3.389          75.027          69.677          75.058
  6580           5.959           1.423          12.393           3.394          75.141          69.791          75.172
  6590           5.959           1.423          12.393           3.399          75.255          69.904          75.286
  6600           5.959           1.423          12.393           3.404          75.368          70.018          75.399
  6610           5.959           1.423          12.393           3.409          75.482          70.132          75.513
  6620           5.959           1.423          12.393           3.414          75.596          70.246          75.627
  6630           5.959           1.423          12.393           3.420          75.710          70.359          75.740
  6640           5.959           1.423          12.393           3.425          75.823          70.473          75.854
  6650           5.959           1.423          12.393           3.430          75.937          70.587          75.968
  6660           5.959           1.423          12.393           3.435          76.051          70.701          76.081
  6670           5.959           1.423          12.394           3.440          76.165          70.814          76.195
  6680           5.959           1.423          12.394           3.445          76.278          70.928          76.309
  6690           5.959           1.423          12.394           3.450          76.392          71.042          76.422
  6700           5.959           1.423          12.394           3.456          76.506          71.155          76.536
  6710           5.959           1.423          12.394           3.461          76.620          71.269          76.650
  6720           5.960           1.423          12.394           3.466          76.733          71.383          76.764
  6730           5.960           1.423          12.394           3.471          76.847          71.497          76.877
  6740           5.960           1.423          12.394           3.476          76.961          71.610          76.991
  6750           5.960           1.423          12.394           3.481          77.074          71.724          77.105
  6760           5.960           1.423          12.394           3.486          77.188          71.838          77.218
  6770           5.960           1.423          12.394           3.491          77.302          71.952          77.332
  6780           5.960           1.423          12.394           3.497          77.416          72.065          77.446
  6790           5.960           1.423          12.394           3.502          77.529          72.179          77.559
  6800           5.960           1.423          12.394           3.507          77.643          72.293          77.673
  6810           5.960           1.423          12.395           3.512          77.757          72.407          77.787
  6820           5.960           1.423          12.395           3.517          77.871          72.520          77.901
  6830           5.960           1.423          12.395           3.522          77.985          72.634          78.014
  6840           5.960           1.423          12.395           3.527          78.098          72.748          78.128
  6850           5.960           1.423          12.395           3.533          78.212          72.862          78.242
  6860           5.960           1.423          12.395           3.538          78.326          72.975          78.355
  6870           5.960           1.423          12.395           3.543          78.440          73.089          78.469
  6880           5.960           1.423          12.395           3.548          78.553          73.203          78.583
  6890           5.960           1.423          12.395           3.553          78.667          73.317          78.697
  6900           5.960           1.423          12.395           3.558          78.781          73.431          78.810
  6910           5.960           1.423          12.395           3.563          78.895          73.544          78.924
  6920           5.960           1.423          12.395           3.569          79.008          73.658          79.038
  6930           5.960           1.423          12.395           3.574          79.122          73.772          79.151
  6940           5.960           1.423          12.395           3.579          79.236          73.886          79.265
  6950           5.960           1.423          12.395           3.584          79.350          73.999          79.379
  6960           5.960           1.423          12.396           3.589          79.463          74.113          79.493
  6970           5.960           1.423          12.396           3.594          79.577          74.227          79.606
  6980           5.960           1.423          12.396           3.599          79.691          74.341          79.720
  6990           5.960           1.423          12.396           3.604          79.805          74.454          79.834
  7000           5.961           1.423          12.396           3.610          79.918          74.568          79.947
  7010           5.961           1.423          12.396           3.615          80.032          74.682          80.061
  7020           5.961           1.423          12.396           3.620          80.146          74.796          80.175
  7030           5.961           1.423          12.396           3.625          80.260          74.909          80.289
  7040           5.961           1.423          12.396           3.630          80.373          75.023          80.402
  7050           5.961           1.423          12.396           3.635          80.487          75.137          80.516
  7060           5.961           1.423          12.396           3.640          80.601          75.251          80.630
  7070           5.961           1.423          12.396           3.646          80.715          75.364          80.744
  7080           5.961           1.423          12.396           3.651          80.829          75.478          80.857
  7090           5.961           1.423          12.396           3.656          80.942          75.592          80.971
  7100           5.961           1.423          12.396           3.661          81.056          75.706          81.085
  7110           5.961           1.423          12.396           3.666          81.170          75.820          81.198
  7120           5.961           1.423          12.397           3.671          81.284          75.933          81.312
  7130           5.961           1.423          12.397           3.676          81.397          76.047          81.426
  7140           5.961           1.423          12.397           3.682          81.511          76.161          81.540
  7150           5.961           1.423          12.397           3.687          81.625          76.275          81.653
  7160           5.961           1.423          12.397           3.692          81.739          76.388          81.767
  7170           5.961           1.423          12.397           3.697          81.852          76.502          81.881
  7180           5.961           1.423          12.397           3.702          81.966          76.616          81.995
  7190           5.961           1.423          12.397           3.707          82.080          76.730          82.108
  7200           5.961           1.423          12.397           3.712          82.194          76.844          82.222
  7210           5.961           1.423          12.397           3.717          82.308          76.957          82.336
  7220           5.961           1.423          12.397           3.723          82.421          77.071          82.450
  7230           5.961           1.423          12.397           3.728          82.535          77.185          82.563
  7240           5.961           1.423          12.397           3.733          82.649          77.299          82.677
  7250           5.961           1.423          12.397           3.738          82.763          77.412          82.791
  7260           5.961           1.423          12.397           3.743          82.876          77.526          82.904
  7270           5.961           1.423          12.397           3.748          82.990          77.640          83.018
  7280           5.961           1.423          12.397           3.753          83.104          77.754          83.132
  7290           5.961           1.423          12.398           3.759          83.218          77.868          83.246
  7300           5.961           1.423          12.398           3.764          83.332          77.981          83.359
  7310           5.961           1.423          12.398           3.769          83.445          78.095          83.473
  7320           5.962           1.423          12.398           3.774          83.559          78.209          83.587
  7330           5.962           1.423          12.398           3.779          83.673          78.323          83.701
  7340           5.962           1.423          12.398           3.784          83.787          78.436          83.814
  7350           5.962           1.423          12.398           3.789          83.900          78.550          83.928
  7360           5.962           1.423          12.398           3.795          84.014          78.664          84.042
  7370           5.962           1.423          12.398           3.800          84.128          78.778          84.156
  7380           5.962           1.423          12.398           3.805          84.242          78.892          84.269
  7390           5.962           1.423          12.398           3.810          84.356          79.005          84.383
  7400           5.962           1.423          12.398           3.815          84.469          79.119          84.497
  7410           5.962           1.423          12.398           3.820          84.583          79.233          84.611
  7420           5.962           1.423          12.398           3.825          84.697          79.347          84.724
  7430           5.962           1.423          12.398           3.830          84.811          79.460          84.838
  7440           5.962           1.423          12.398           3.836          84.925          79.574          84.952
  7450           5.962           1.423          12.398           3.841          85.038          79.688          85.066
  7460           5.962           1.423          12.398           3.846          85.152          79.802          85.179
  7470           5.962           1.423          12.398           3.851          85.266          79.916          85.293
  7480           5.962           1.423          12.399           3.856          85.380          80.029          85.407
  7490           5.962           1.423          12.399           3.861          85.493          80.143          85.521
  7500           5.962           1.423          12.399           3.866          85.607          80.257          85.634
  7510           5.962           1.423          12.399           3.872          85.721          80.371          85.748
  7520           5.962           1.423          12.399           3.877          85.835          80.485          85.862
  7530           5.962           1.423          12.399           3.882          85.949          80.598          85.976
  7540           5.962           1.423          12.399           3.887          86.062          80.712          86.089
  7550           5.962           1.423          12.399           3.892          86.176          80.826          86.203
  7560           5.962           1.423          12.399           3.897          86.290          80.940          86.317
  7570           5.962           1.423          12.399           3.902          86.404          81.054          86.431
  7580           5.962           1.423          12.399           3.908          86.518          81.167          86.544
  7590           5.962           1.423          12.399           3.913          86.631          81.281          86.658
  7600           5.962           1.423          12.399           3.918          86.745          81.395          86.772
  7610           5.962           1.423          12.399           3.923          86.859          81.509          86.886
  7620           5.962           1.423          12.399           3.928          86.973          81.623          86.999
  7630           5.962           1.423          12.399           3.933          87.087          81.736          87.113
  7640           5.962           1.423          12.399           3.938          87.200          81.850          87.227
  7650           5.962           1.423          12.399           3.944          87.314          81.964          87.341
  7660           5.962           1.423          12.399           3.949          87.428          82.078          87.455
  7670           5.962           1.423          12.399           3.954          87.542          82.191          87.568
  7680           5.962           1.423          12.400           3.959          87.656          82.305          87.682
  7690           5.963           1.423          12.400           3.964          87.769          82.419          87.796
  7700           5.963           1.423          12.400           3.969          87.883          82.533          87.910
  7710           5.963           1.423          12.400           3.974          87.997          82.647          88.023
  7720           5.963           1.423          12.400           3.979          88.111          82.760          88.137
  7730           5.963           1.423          12.400           3.985          88.225          82.874          88.251
  7740           5.963           1.423          12.400           3.990          88.338          82.988          88.365
  7750           5.963           1.423          12.400           3.995          88.452          83.102          88.478
  7760           5.963           1.423          12.400           4.000          88.566          83.216          88.592
  7770           5.963           1.423          12.400           4.005          88.680          83.329          88.706
  7780           5.963           1.423          12.400           4.010          88.794          83.443          88.820
  7790           5.963           1.423          12.400           4.015          88.907          83.557          88.933
  7800           5.963           1.423          12.400           4.021          89.021          83.671          89.047
  7810           5.963           1.423          12.400           4.026          89.135          83.785          89.161
  7820           5.963           1.423          12.400           4.031          89.249          83.899          89.275
  7830           5.963           1.423          12.400           4.036          89.363          84.012          89.389
  7840           5.963           1.423          12.400           4.041          89.476          84.126          89.502
  7850           5.963           1.423          12.400           4.046          89.590          84.240          89.616
  7860           5.963           1.423          12.400           4.051          89.704          84.354          89.730
  7870           5.963           1.423          12.400           4.057          89.818          84.468          89.844
  7880           5.963           1.423          12.400           4.062          89.932          84.581          89.957
  7890           5.963           1.423          12.400           4.067          90.045          84.695          90.071
  7900           5.963           1.423          12.401           4.072          90.159          84.809          90.185
  7910           5.963           1.423          12.401           4.077          90.273          84.923          90.299
  7920           5.963           1.423          12.401           4.082          90.387          85.037          90.413
  7930           5.963           1.423          12.401           4.087          90.501          85.150          90.526
  7940           5.963           1.423          12.401           4.093          90.614          85.264          90.640
  7950           5.963           1.423          12.401           4.098          90.728          85.378          90.754
  7960           5.963           1.423          12.401           4.103          90.842          85.492          90.868
  7970           5.963           1.423          12.401           4.108          90.956          85.606          90.981
  7980           5.963           1.423          12.401           4.113          91.070          85.719          91.095
  7990           5.963           1.423          12.401           4.118          91.183          85.833          91.209
  8000           5.963           1.423          12.401           4.123          91.297          85.947          91.323
  8010           5.963           1.423          12.401           4.129          91.411          86.061          91.437
  8020           5.963           1.423          12.401           4.134          91.525          86.175          91.550
  8030           5.963           1.423          12.401           4.139          91.639          86.288          91.664
  8040           5.963           1.423          12.401           4.144          91.753          86.402          91.778
  8050           5.963           1.423          12.401           4.149          91.866          86.516          91.892
  8060           5.963           1.423          12.401           4.154          91.980          86.630          92.005
  8070           5.963           1.423          12.401           4.159          92.094          86.744          92.119
  8080           5.963           1.423          12.401           4.164          92.208          86.858          92.233
  8090           5.963           1.423          12.401           4.170          92.322          86.971          92.347
  8100           5.963           1.423          12.401           4.175          92.435          87.085          92.461
  8110           5.963           1.423          12.401           4.180          92.549          87.199          92.574
  8120           5.964           1.423          12.401           4.185          92.663          87.313          92.688
  8130           5.964           1.423          12.402           4.190          92.777          87.427          92.802
  8140           5.964           1.423          12.402           4.195          92.891          87.540          92.916
  8150           5.964           1.423          12.402           4.200          93.004          87.654          93.029
  8160           5.964           1.423          12.402           4.206          93.118          87.768          93.143
  8170           5.964           1.423          12.402           4.211          93.232          87.882          93.257
  8180           5.964           1.423          12.402           4.216          93.346          87.996          93.371
  8190           5.964           1.423          12.402           4.221          93.460          88.110          93.485
  8200           5.964           1.423          12.402           4.226          93.574          88.223          93.598
  8210           5.964           1.423          12.402           4.231          93.687          88.337          93.712
  8220           5.964           1.423          12.402           4.236          93.801          88.451          93.826
  8230           5.964           1.423          12.402           4.242          93.915          88.565          93.940
  8240           5.964           1.423          12.402           4.247          94.029          88.679          94.054
  8250           5.964           1.423          12.402           4.252          94.143          88.792          94.167
  8260           5.964           1.423          12.402           4.257          94.256          88.906          94.281
  8270           5.964           1.423          12.402           4.262          94.370          89.020          94.395
  8280           5.964           1.423          12.402           4.267          94.484          89.134          94.509
  8290           5.964           1.423          12.402           4.272          94.598          89.248          94.623
  8300           5.964           1.423          12.402           4.278          94.712          89.362          94.736
  8310           5.964           1.423          12.402           4.283          94.826          89.475          94.850
  8320           5.964           1.423          12.402           4.288          94.939          89.589          94.964
  8330           5.964           1.423          12.402           4.293          95.053          89.703          95.078
  8340           5.964           1.423          12.402           4.298          95.167          89.817          95.191
  8350           5.964           1.423          12.402           4.303          95.281          89.931          95.305
  8360           5.964           1.423          12.402           4.308          95.395          90.044          95.419
  8370           5.964           1.423          12.402           4.314          95.509          90.158          95.533
  8380           5.964           1.423          12.402           4.319          95.622          90.272          95.647
  8390           5.964           1.423          12.402           4.324          95.736          90.386          95.760
  8400           5.964           1.423          12.403           4.329          95.850          90.500          95.874
  8410           5.964           1.423          12.403           4.334          95.964          90.614          95.988
  8420           5.964           1.423          12.403           4.339          96.078          90.727          96.102
  8430           5.964           1.423          12.403           4.344          96.191          90.841          96.216
  8440           5.964           1.423          12.403           4.349          96.305          90.955          96.329
  8450           5.964           1.423          12.403           4.355          96.419          91.069          96.443
  8460           5.964           1.423          12.403           4.360          96.533          91.183          96.557
  8470           5.964           1.423          12.403           4.365          96.647          91.297          96.671
  8480           5.964           1.423          12.403           4.370          96.761          91.410          96.785
  8490           5.964           1.423          12.403           4.375          96.874          91.524          96.898
  8500           5.964           1.423          12.403           4.380          96.988          91.638          97.012
  8510           5.964           1.423          12.403           4.385          97.102          91.752          97.126
  8520           5.964           1.423          12.403           4.391          97.216          91.866          97.240
  8530           5.964           1.423          12.403           4.396          97.330          91.980          97.354
  8540           5.964           1.423          12.403           4.401          97.444          92.093          97.467
  8550           5.964           1.423          12.403           4.406          97.557          92.207          97.581
  8560           5.964           1.423          12.403           4.411          97.671          92.321          97.695
  8570           5.964           1.423          12.403           4.416          97.785          92.435          97.809
  8580           5.964           1.423          12.403           4.421          97.899          92.549          97.923
  8590           5.964           1.423          12.403           4.427          98.013          92.663          98.036
  8600           5.964           1.423          12.403           4.432          98.127          92.776          98.150
  8610           5.964           1.423          12.403           4.437          98.240          92.890          98.264
  8620           5.964           1.423          12.403           4.442          98.354          93.004          98.378
  8630           5.965           1.423          12.403           4.447          98.468          93.118          98.492
  8640           5.965           1.423          12.403           4.452          98.582          93.232          98.605
  8650           5.965           1.423          12.403           4.457          98.696          93.346          98.719
  8660           5.965           1.423          12.403           4.463          98.810          93.459          98.833
  8670           5.965           1.423          12.403           4.468          98.923          93.573          98.947
  8680           5.965           1.423          12.404           4.473          99.037          93.687          99.061
  8690           5.965           1.423          12.404           4.478          99.151          93.801          99.175
  8700           5.965           1.423          12.404           4.483          99.265          93.915          99.288
  8710           5.965           1.423          12.404           4.488          99.379          94.029          99.402
  8720           5.965           1.423          12.404           4.493          99.493          94.142          99.516
  8730           5.965           1.423          12.404           4.499          99.606          94.256          99.630
  8740           5.965           1.423          12.404           4.504          99.720          94.370          99.744
  8750           5.965           1.423          12.404           4.509          99.834          94.484          99.857
  8760           5.965           1.423          12.404           4.514          99.948          94.598          99.971
  8770           5.965           1.423          12.404           4.519         100.062          94.712         100.085
  8780           5.965           1.423          12.404           4.524         100.176          94.825         100.199
  8790           5.965           1.423          12.404           4.529         100.289          94.939         100.313
  8800           5.965           1.423          12.404           4.535         100.403          95.053         100.426
  8810           5.965           1.423          12.404           4.540         100.517          95.167         100.540
  8820           5.965           1.423          12.404           4.545         100.631          95.281         100.654
  8830           5.965           1.423          12.404           4.550         100.745          95.395         100.768
  8840           5.965           1.423          12.404           4.555         100.859          95.508         100.882
  8850           5.965           1.423          12.404           4.560         100.972          95.622         100.995
  8860           5.965           1.423          12.404           4.565         101.086          95.736         101.109
  8870           5.965           1.423          12.404           4.570         101.200          95.850         101.223
  8880           5.965           1.423          12.404           4.576         101.314          95.964         101.337
  8890           5.965           1.423          12.404           4.581         101.428          96.078         101.451
  8900           5.965           1.423          12.404           4.586         101.542          96.191         101.565
  8910           5.965           1.423          12.404           4.591         101.656          96.305         101.678
  8920           5.965           1.423          12.404           4.596         101.769          96.419         101.792
  8930           5.965           1.423          12.404           4.601         101.883          96.533         101.906
  8940           5.965           1.423          12.404           4.606         101.997          96.647         102.020
  8950           5.965           1.423          12.404           4.612         102.111          96.761         102.134
  8960           5.965           1.423          12.404           4.617         102.225          96.875         102.247
  8970           5.965           1.423          12.404           4.622         102.339          96.988         102.361
  8980           5.965           1.423          12.404           4.627         102.452          97.102         102.475
  8990           5.965           1.423          12.404           4.632         102.566          97.216         102.589
  9000           5.965           1.423          12.405           4.637         102.680          97.330         102.703
  9010           5.965           1.423          12.405           4.642         102.794          97.444         102.817
  9020           5.965           1.423          12.405           4.648         102.908          97.558         102.930
  9030           5.965           1.423          12.405           4.653         103.022          97.671         103.044
  9040           5.965           1.423          12.405           4.658         103.135          97.785         103.158
  9050           5.965           1.423          12.405           4.663         103.249          97.899         103.272
  9060           5.965           1.423          12.405           4.668         103.363          98.013         103.386
  9070           5.965           1.423          12.405           4.673         103.477          98.127         103.499
  9080           5.965           1.423          12.405           4.678         103.591          98.241         103.613
  9090           5.965           1.423          12.405           4.684         103.705          98.354         103.727
  9100           5.965           1.423          12.405           4.689         103.819          98.468         103.841
  9110           5.965           1.423          12.405           4.694         103.932          98.582         103.955
  9120           5.965           1.423          12.405           4.699         104.046          98.696         104.069
  9130           5.965           1.423          12.405           4.704         104.160          98.810         104.182
  9140           5.965           1.423          12.405           4.709         104.274          98.924         104.296
  9150           5.965           1.423          12.405           4.714         104.388          99.038         104.410
  9160           5.965           1.423          12.405           4.720         104.502          99.151         104.524
  9170           5.965           1.423          12.405           4.725         104.615          99.265         104.638
  9180           5.965           1.423          12.405           4.730         104.729          99.379         104.752
  9190           5.965           1.423          12.405           4.735         104.843          99.493         104.865
  9200           5.965           1.423          12.405           4.740         104.957          99.607         104.979
  9210           5.965           1.423          12.405           4.745         105.071          99.721         105.093
  9220           5.965           1.423          12.405           4.750         105.185          99.835         105.207
  9230           5.965           1.423          12.405           4.756         105.299          99.948         105.321
  9240           5.965           1.423          12.405           4.761         105.412         100.062         105.434
  9250           5.966           1.423          12.405           4.766         105.526         100.176         105.548
  9260           5.966           1.423          12.405           4.771         105.640         100.290         105.662
  9270           5.966           1.423          12.405           4.776         105.754         100.404         105.776
  9280           5.966           1.423          12.405           4.781         105.868         100.518         105.890
  9290           5.966           1.423          12.405           4.786         105.982         100.631         106.004
  9300           5.966           1.423          12.405           4.792         106.096         100.745         106.117
  9310           5.966           1.423          12.405           4.797         106.209         100.859         106.231
  9320           5.966           1.423          12.405           4.802         106.323         100.973         106.345
  9330           5.966           1.423          12.405           4.807         106.437         101.087         106.459
  9340           5.966           1.423          12.405           4.812         106.551         101.201         106.573
  9350           5.966           1.423          12.405           4.817         106.665         101.315         106.687
  9360           5.966           1.423          12.406           4.822         106.779         101.428         106.800
  9370           5.966           1.423          12.406           4.828         106.893         101.542         106.914
  9380           5.966           1.423          12.406           4.833         107.006         101.656         107.028
  9390           5.966           1.423          12.406           4.838         107.120         101.770         107.142
  9400           5.966           1.423          12.406           4.843         107.234         101.884         107.256
  9410           5.966           1.423          12.406           4.848         107.348         101.998         107.370
  9420           5.966           1.423          12.406           4.853         107.462         102.112         107.483
  9430           5.966           1.423          12.406           4.858         107.576         102.225         107.597
  9440           5.966           1.423          12.406           4.864         107.689         102.339         107.711
  9450           5.966           1.423          12.406           4.869         107.803         102.453         107.825
  9460           5.966           1.423          12.406           4.874         107.917         102.567         107.939
  9470           5.966           1.423          12.406           4.879         108.031         102.681         108.053
  9480           5.966           1.423          12.406           4.884         108.145         102.795         108.166
  9490           5.966           1.423          12.406           4.889         108.259         102.909         108.280
  9500           5.966           1.423          12.406           4.894         108.373         103.022         108.394
  9510           5.966           1.423          12.406           4.899         108.486         103.136         108.508
  9520           5.966           1.423          12.406           4.905         108.600         103.250         108.622
  9530           5.966           1.423          12.406           4.910         108.714         103.364         108.736
  9540           5.966           1.423          12.406           4.915         108.828         103.478         108.849
  9550           5.966           1.423          12.406           4.920         108.942         103.592         108.963
  9560           5.966           1.423          12.406           4.925         109.056         103.706         109.077
  9570           5.966           1.423          12.406           4.930         109.170         103.819         109.191
  9580           5.966           1.423          12.406           4.935         109.283         103.933         109.305
  9590           5.966           1.423          12.406           4.941         109.397         104.047         109.419
  9600           5.966           1.423          12.406           4.946         109.511         104.161         109.532
  9610           5.966           1.423          12.406           4.951         109.625         104.275         109.646
  9620           5.966           1.423          12.406           4.956         109.739         104.389         109.760
  9630           5.966           1.423          12.406           4.961         109.853         104.503         109.874
  9640           5.966           1.423          12.406           4.966         109.967         104.616         109.988
  9650           5.966           1.423          12.406           4.971         110.080         104.730         110.102
  9660           5.966           1.423          12.406           4.977         110.194         104.844         110.215
  9670           5.966           1.423          12.406           4.982         110.308         104.958         110.329
  9680           5.966           1.423          12.406           4.987         110.422         105.072         110.443
  9690           5.966           1.423          12.406           4.992         110.536         105.186         110.557
  9700           5.966           1.423          12.406           4.997         110.650         105.300         110.671
  9710           5.966           1.423          12.406           5.002         110.764         105.413         110.785
  9720           5.966           1.423          12.406           5.007         110.878         105.527         110.898
  9730           5.966           1.423          12.406           5.013         110.991         105.641         111.012
  9740           5.966           1.423          12.406           5.018         111.105         105.755         111.126
  9750           5.966           1.423          12.406           5.023         111.219         105.869         111.240
  9760           5.966           1.423          12.407           5.028         111.333         105.983         111.354
  9770           5.966           1.423          12.407           5.033         111.447         106.097         111.468
  9780           5.966           1.423          12.407           5.038         111.561         106.210         111.581
  9790           5.966           1.423          12.407           5.043         111.675         106.324         111.695
  9800           5.966           1.423          12.407           5.049         111.788         106.438         111.809
  9810           5.966           1.423          12.407           5.054         111.902         106.552         111.923
  9820           5.966           1.423          12.407           5.059         112.016         106.666         112.037
  9830           5.966           1.423          12.407           5.064         112.130         106.780         112.151
  9840           5.966           1.423          12.407           5.069         112.244         106.894         112.265
  9850           5.966           1.423          12.407           5.074         112.358         107.007         112.378
  9860           5.966           1.423          12.407           5.079         112.472         107.121         112.492
  9870           5.966           1.423          12.407           5.085         112.585         107.235         112.606
  9880           5.966           1.423          12.407           5.090         112.699         107.349         112.720
  9890           5.966           1.423          12.407           5.095         112.813         107.463         112.834
  9900           5.966           1.423          12.407           5.100         112.927         107.577         112.948
  9910           5.966           1.423          12.407           5.105         113.041         107.691         113.061
  9920           5.966           1.423          12.407           5.110         113.155         107.805         113.175
  9930           5.966           1.423          12.407           5.115         113.269         107.918         113.289
  9940           5.966           1.423          12.407           5.121         113.382         108.032         113.403
  9950           5.966           1.423          12.407           5.126         113.496         108.146         113.517
  9960           5.966           1.423          12.407           5.131         113.610         108.260         113.631
  9970           5.966           1.423          12.407           5.136         113.724         108.374         113.745
  9980           5.966           1.423          12.407           5.141         113.838         108.483         113.858
  9990           5.966           1.423          12.407           5.146         113.952         108.616         113.972
 10000           5.966           1.423          12.407           5.151         114.066         108.659         114.086
