#   T(K)    C_v(k_B/fu)        Gamma     alpha_v*10^6(K^-1)   E_th(eV)                       P_th(GPa)
#                                                                         ----------------------------------------------
#                                                                          {sum G_i.U_iV}  {int G.C_v/V dT}    {G.U/V}
# ----------------------------------------------------------------------------------------------------------------------
    10           0.007           0.590           0.005           0.170           1.000           0.000           0.401
    20           0.132           0.841           0.155           0.170           1.000           0.000           0.571
    30           0.449           0.979           0.613           0.170           1.001           0.002           0.666
    40           0.855           1.050           1.252           0.171           1.003           0.005           0.717
    50           1.271           1.108           1.965           0.172           1.007           0.010           0.760
    60           1.675           1.165           2.721           0.173           1.013           0.017           0.805
    70           2.067           1.219           3.511           0.175           1.021           0.025           0.850
    80           2.450           1.266           4.325           0.177           1.030           0.036           0.893
    90           2.826           1.306           5.147           0.179           1.042           0.049           0.933
   100           3.193           1.339           5.962           0.182           1.056           0.063           0.970
   110           3.551           1.365           6.758           0.185           1.071           0.080           1.005
   120           3.895           1.385           7.523           0.188           1.089           0.098           1.038
   130           4.224           1.401           8.251           0.191           1.109           0.119           1.069
   140           4.536           1.413           8.936           0.195           1.130           0.141           1.099
   150           4.830           1.422           9.577           0.199           1.153           0.164           1.130
   160           5.104           1.429          10.172           0.203           1.177           0.190           1.160
   170           5.360           1.435          10.724           0.208           1.203           0.216           1.190
   180           5.597           1.439          11.233           0.213           1.230           0.244           1.221
   190           5.817           1.443          11.701           0.217           1.258           0.273           1.252
   200           6.021           1.445          12.132           0.223           1.287           0.302           1.284
   210           6.208           1.447          12.528           0.228           1.318           0.333           1.316
   220           6.381           1.449          12.892           0.233           1.349           0.365           1.349
   230           6.541           1.450          13.227           0.239           1.381           0.398           1.382
   240           6.689           1.451          13.535           0.245           1.414           0.431           1.416
   250           6.825           1.452          13.818           0.250           1.448           0.465           1.451
   260           6.950           1.453          14.078           0.256           1.483           0.500           1.486
   270           7.066           1.453          14.319           0.262           1.518           0.535           1.521
   280           7.174           1.454          14.540           0.268           1.553           0.571           1.557
   290           7.273           1.454          14.745           0.275           1.589           0.608           1.594
   300           7.365           1.454          14.934           0.281           1.626           0.644           1.631
   310           7.451           1.454          15.110           0.287           1.663           0.682           1.668
   320           7.530           1.455          15.272           0.294           1.700           0.719           1.706
   330           7.604           1.455          15.423           0.300           1.738           0.757           1.744
   340           7.673           1.455          15.564           0.307           1.776           0.796           1.782
   350           7.737           1.455          15.694           0.314           1.815           0.834           1.821
   360           7.797           1.455          15.816           0.320           1.854           0.873           1.859
   370           7.853           1.455          15.929           0.327           1.893           0.913           1.899
   380           7.905           1.455          16.035           0.334           1.932           0.952           1.938
   390           7.954           1.455          16.135           0.341           1.972           0.992           1.978
   400           8.000           1.455          16.228           0.348           2.012           1.032           2.018
   410           8.043           1.455          16.315           0.354           2.052           1.072           2.058
   420           8.083           1.455          16.397           0.361           2.092           1.113           2.098
   430           8.121           1.455          16.473           0.368           2.133           1.153           2.139
   440           8.157           1.455          16.546           0.375           2.174           1.194           2.179
   450           8.190           1.455          16.614           0.382           2.215           1.235           2.220
   460           8.222           1.455          16.678           0.390           2.256           1.276           2.261
   470           8.252           1.455          16.738           0.397           2.297           1.318           2.302
   480           8.280           1.455          16.795           0.404           2.338           1.359           2.344
   490           8.307           1.455          16.849           0.411           2.380           1.400           2.385
   500           8.333           1.455          16.901           0.418           2.421           1.442           2.427
   510           8.357           1.455          16.949           0.425           2.463           1.484           2.468
   520           8.379           1.455          16.995           0.432           2.505           1.526           2.510
   530           8.401           1.455          17.038           0.440           2.547           1.568           2.552
   540           8.422           1.455          17.080           0.447           2.589           1.610           2.594
   550           8.441           1.455          17.119           0.454           2.631           1.652           2.636
   560           8.460           1.455          17.156           0.461           2.673           1.695           2.678
   570           8.477           1.455          17.192           0.469           2.716           1.737           2.721
   580           8.494           1.454          17.226           0.476           2.758           1.779           2.763
   590           8.510           1.454          17.258           0.483           2.801           1.822           2.805
   600           8.526           1.454          17.289           0.491           2.843           1.865           2.848
   610           8.540           1.454          17.318           0.498           2.886           1.907           2.891
   620           8.554           1.454          17.346           0.505           2.929           1.950           2.933
   630           8.568           1.454          17.373           0.513           2.972           1.993           2.976
   640           8.580           1.454          17.398           0.520           3.014           2.036           3.019
   650           8.593           1.454          17.423           0.528           3.057           2.079           3.062
   660           8.604           1.454          17.446           0.535           3.100           2.122           3.105
   670           8.616           1.454          17.469           0.542           3.143           2.165           3.148
   680           8.626           1.454          17.490           0.550           3.186           2.208           3.191
   690           8.637           1.454          17.511           0.557           3.230           2.251           3.234
   700           8.647           1.454          17.531           0.565           3.273           2.294           3.277
   710           8.656           1.454          17.550           0.572           3.316           2.338           3.320
   720           8.665           1.454          17.568           0.580           3.359           2.381           3.364
   730           8.674           1.454          17.586           0.587           3.403           2.424           3.407
   740           8.682           1.454          17.603           0.595           3.446           2.468           3.450
   750           8.691           1.454          17.619           0.602           3.490           2.511           3.494
   760           8.698           1.454          17.634           0.610           3.533           2.555           3.537
   770           8.706           1.454          17.649           0.617           3.577           2.598           3.580
   780           8.713           1.454          17.664           0.625           3.620           2.642           3.624
   790           8.720           1.454          17.678           0.632           3.664           2.685           3.668
   800           8.727           1.454          17.691           0.640           3.707           2.729           3.711
   810           8.733           1.454          17.704           0.647           3.751           2.773           3.755
   820           8.740           1.454          17.717           0.655           3.795           2.816           3.798
   830           8.746           1.454          17.729           0.662           3.838           2.860           3.842
   840           8.752           1.454          17.741           0.670           3.882           2.904           3.886
   850           8.757           1.454          17.752           0.677           3.926           2.948           3.929
   860           8.763           1.454          17.763           0.685           3.970           2.992           3.973
   870           8.768           1.454          17.774           0.692           4.013           3.035           4.017
   880           8.773           1.454          17.784           0.700           4.057           3.079           4.061
   890           8.778           1.454          17.794           0.708           4.101           3.123           4.105
   900           8.783           1.454          17.803           0.715           4.145           3.167           4.148
   910           8.787           1.454          17.812           0.723           4.189           3.211           4.192
   920           8.792           1.454          17.821           0.730           4.233           3.255           4.236
   930           8.796           1.454          17.830           0.738           4.277           3.299           4.280
   940           8.800           1.454          17.838           0.745           4.321           3.343           4.324
   950           8.805           1.454          17.847           0.753           4.365           3.387           4.368
   960           8.809           1.454          17.855           0.761           4.409           3.431           4.412
   970           8.812           1.454          17.862           0.768           4.453           3.475           4.456
   980           8.816           1.454          17.870           0.776           4.497           3.519           4.500
   990           8.820           1.454          17.877           0.783           4.541           3.563           4.544
  1000           8.823           1.454          17.884           0.791           4.585           3.607           4.588
  1010           8.827           1.454          17.891           0.799           4.629           3.651           4.632
  1020           8.830           1.454          17.897           0.806           4.673           3.695           4.676
  1030           8.833           1.454          17.904           0.814           4.718           3.740           4.721
  1040           8.836           1.454          17.910           0.821           4.762           3.784           4.765
  1050           8.839           1.454          17.916           0.829           4.806           3.828           4.809
  1060           8.842           1.454          17.922           0.837           4.850           3.872           4.853
  1070           8.845           1.454          17.928           0.844           4.894           3.916           4.897
  1080           8.848           1.454          17.933           0.852           4.938           3.961           4.941
  1090           8.851           1.454          17.939           0.860           4.983           4.005           4.986
  1100           8.853           1.454          17.944           0.867           5.027           4.049           5.030
  1110           8.856           1.454          17.949           0.875           5.071           4.093           5.074
  1120           8.859           1.454          17.954           0.882           5.115           4.138           5.118
  1130           8.861           1.454          17.959           0.890           5.160           4.182           5.163
  1140           8.863           1.454          17.964           0.898           5.204           4.226           5.207
  1150           8.866           1.454          17.969           0.905           5.248           4.271           5.251
  1160           8.868           1.454          17.973           0.913           5.293           4.315           5.295
  1170           8.870           1.454          17.978           0.921           5.337           4.359           5.340
  1180           8.872           1.454          17.982           0.928           5.381           4.404           5.384
  1190           8.874           1.454          17.986           0.936           5.426           4.448           5.428
  1200           8.877           1.454          17.990           0.944           5.470           4.492           5.473
  1210           8.879           1.454          17.994           0.951           5.514           4.537           5.517
  1220           8.880           1.454          17.998           0.959           5.559           4.581           5.561
  1230           8.882           1.454          18.002           0.967           5.603           4.625           5.606
  1240           8.884           1.454          18.006           0.974           5.648           4.670           5.650
  1250           8.886           1.454          18.009           0.982           5.692           4.714           5.695
  1260           8.888           1.454          18.013           0.989           5.736           4.759           5.739
  1270           8.890           1.454          18.016           0.997           5.781           4.803           5.783
  1280           8.891           1.454          18.020           1.005           5.825           4.848           5.828
  1290           8.893           1.454          18.023           1.012           5.870           4.892           5.872
  1300           8.895           1.454          18.026           1.020           5.914           4.936           5.917
  1310           8.896           1.454          18.029           1.028           5.959           4.981           5.961
  1320           8.898           1.454          18.032           1.035           6.003           5.025           6.006
  1330           8.899           1.454          18.035           1.043           6.048           5.070           6.050
  1340           8.901           1.454          18.038           1.051           6.092           5.114           6.094
  1350           8.902           1.454          18.041           1.058           6.137           5.159           6.139
  1360           8.904           1.454          18.044           1.066           6.181           5.203           6.183
  1370           8.905           1.454          18.047           1.074           6.226           5.248           6.228
  1380           8.906           1.454          18.050           1.081           6.270           5.292           6.272
  1390           8.908           1.454          18.052           1.089           6.315           5.337           6.317
  1400           8.909           1.454          18.055           1.097           6.359           5.381           6.361
  1410           8.910           1.454          18.057           1.105           6.404           5.426           6.406
  1420           8.911           1.454          18.060           1.112           6.448           5.470           6.450
  1430           8.913           1.454          18.062           1.120           6.493           5.515           6.495
  1440           8.914           1.454          18.065           1.128           6.537           5.560           6.540
  1450           8.915           1.454          18.067           1.135           6.582           5.604           6.584
  1460           8.916           1.454          18.069           1.143           6.626           5.649           6.629
  1470           8.917           1.454          18.071           1.151           6.671           5.693           6.673
  1480           8.918           1.454          18.074           1.158           6.716           5.738           6.718
  1490           8.920           1.454          18.076           1.166           6.760           5.782           6.762
  1500           8.921           1.454          18.078           1.174           6.805           5.827           6.807
  1510           8.922           1.454          18.080           1.181           6.849           5.872           6.851
  1520           8.923           1.454          18.082           1.189           6.894           5.916           6.896
  1530           8.924           1.454          18.084           1.197           6.938           5.961           6.941
  1540           8.925           1.454          18.086           1.204           6.983           6.005           6.985
  1550           8.926           1.454          18.088           1.212           7.028           6.050           7.030
  1560           8.927           1.454          18.090           1.220           7.072           6.095           7.074
  1570           8.927           1.454          18.092           1.228           7.117           6.139           7.119
  1580           8.928           1.454          18.093           1.235           7.161           6.184           7.164
  1590           8.929           1.453          18.095           1.243           7.206           6.228           7.208
  1600           8.930           1.453          18.097           1.251           7.251           6.273           7.253
  1610           8.931           1.453          18.099           1.258           7.295           6.318           7.297
  1620           8.932           1.453          18.100           1.266           7.340           6.362           7.342
  1630           8.933           1.453          18.102           1.274           7.385           6.407           7.387
  1640           8.933           1.453          18.104           1.281           7.429           6.452           7.431
  1650           8.934           1.453          18.105           1.289           7.474           6.496           7.476
  1660           8.935           1.453          18.107           1.297           7.519           6.541           7.521
  1670           8.936           1.453          18.108           1.304           7.563           6.586           7.565
  1680           8.937           1.453          18.110           1.312           7.608           6.630           7.610
  1690           8.937           1.453          18.111           1.320           7.653           6.675           7.654
  1700           8.938           1.453          18.113           1.328           7.697           6.720           7.699
  1710           8.939           1.453          18.114           1.335           7.742           6.764           7.744
  1720           8.939           1.453          18.116           1.343           7.787           6.809           7.788
  1730           8.940           1.453          18.117           1.351           7.831           6.854           7.833
  1740           8.941           1.453          18.118           1.358           7.876           6.898           7.878
  1750           8.942           1.453          18.120           1.366           7.921           6.943           7.922
  1760           8.942           1.453          18.121           1.374           7.965           6.988           7.967
  1770           8.943           1.453          18.122           1.382           8.010           7.032           8.012
  1780           8.943           1.453          18.123           1.389           8.055           7.077           8.057
  1790           8.944           1.453          18.125           1.397           8.099           7.122           8.101
  1800           8.945           1.453          18.126           1.405           8.144           7.166           8.146
  1810           8.945           1.453          18.127           1.412           8.189           7.211           8.191
  1820           8.946           1.453          18.128           1.420           8.233           7.256           8.235
  1830           8.946           1.453          18.130           1.428           8.278           7.301           8.280
  1840           8.947           1.453          18.131           1.435           8.323           7.345           8.325
  1850           8.948           1.453          18.132           1.443           8.368           7.390           8.369
  1860           8.948           1.453          18.133           1.451           8.412           7.435           8.414
  1870           8.949           1.453          18.134           1.459           8.457           7.479           8.459
  1880           8.949           1.453          18.135           1.466           8.502           7.524           8.504
  1890           8.950           1.453          18.136           1.474           8.546           7.569           8.548
  1900           8.950           1.453          18.137           1.482           8.591           7.614           8.593
  1910           8.951           1.453          18.138           1.489           8.636           7.658           8.638
  1920           8.951           1.453          18.139           1.497           8.681           7.703           8.682
  1930           8.952           1.453          18.140           1.505           8.725           7.748           8.727
  1940           8.952           1.453          18.141           1.513           8.770           7.793           8.772
  1950           8.953           1.453          18.142           1.520           8.815           7.837           8.817
  1960           8.953           1.453          18.143           1.528           8.860           7.882           8.861
  1970           8.954           1.453          18.144           1.536           8.904           7.927           8.906
  1980           8.954           1.453          18.145           1.543           8.949           7.972           8.951
  1990           8.955           1.453          18.146           1.551           8.994           8.016           8.996
  2000           8.955           1.453          18.147           1.559           9.039           8.061           9.040
  2010           8.956           1.453          18.148           1.567           9.083           8.106           9.085
  2020           8.956           1.453          18.149           1.574           9.128           8.151           9.130
  2030           8.956           1.453          18.149           1.582           9.173           8.195           9.175
  2040           8.957           1.453          18.150           1.590           9.218           8.240           9.219
  2050           8.957           1.453          18.151           1.597           9.262           8.285           9.264
  2060           8.958           1.453          18.152           1.605           9.307           8.330           9.309
  2070           8.958           1.453          18.153           1.613           9.352           8.374           9.354
  2080           8.959           1.453          18.153           1.621           9.397           8.419           9.398
  2090           8.959           1.453          18.154           1.628           9.441           8.464           9.443
  2100           8.959           1.453          18.155           1.636           9.486           8.509           9.488
  2110           8.960           1.453          18.156           1.644           9.531           8.553           9.533
  2120           8.960           1.453          18.157           1.652           9.576           8.598           9.577
  2130           8.960           1.453          18.157           1.659           9.621           8.643           9.622
  2140           8.961           1.453          18.158           1.667           9.665           8.688           9.667
  2150           8.961           1.453          18.159           1.675           9.710           8.733           9.712
  2160           8.962           1.453          18.159           1.682           9.755           8.777           9.756
  2170           8.962           1.453          18.160           1.690           9.800           8.822           9.801
  2180           8.962           1.453          18.161           1.698           9.845           8.867           9.846
  2190           8.963           1.453          18.162           1.706           9.889           8.912           9.891
  2200           8.963           1.453          18.162           1.713           9.934           8.956           9.936
  2210           8.963           1.453          18.163           1.721           9.979           9.001           9.980
  2220           8.964           1.453          18.164           1.729          10.024           9.046          10.025
  2230           8.964           1.453          18.164           1.736          10.068           9.091          10.070
  2240           8.964           1.453          18.165           1.744          10.113           9.136          10.115
  2250           8.965           1.453          18.165           1.752          10.158           9.180          10.160
  2260           8.965           1.453          18.166           1.760          10.203           9.225          10.204
  2270           8.965           1.453          18.167           1.767          10.248           9.270          10.249
  2280           8.965           1.453          18.167           1.775          10.292           9.315          10.294
  2290           8.966           1.453          18.168           1.783          10.337           9.360          10.339
  2300           8.966           1.453          18.168           1.791          10.382           9.404          10.383
  2310           8.966           1.453          18.169           1.798          10.427           9.449          10.428
  2320           8.967           1.453          18.170           1.806          10.472           9.494          10.473
  2330           8.967           1.453          18.170           1.814          10.516           9.539          10.518
  2340           8.967           1.453          18.171           1.821          10.561           9.584          10.563
  2350           8.967           1.453          18.171           1.829          10.606           9.629          10.608
  2360           8.968           1.453          18.172           1.837          10.651           9.673          10.652
  2370           8.968           1.453          18.172           1.845          10.696           9.718          10.697
  2380           8.968           1.453          18.173           1.852          10.741           9.763          10.742
  2390           8.969           1.453          18.173           1.860          10.785           9.808          10.787
  2400           8.969           1.453          18.174           1.868          10.830           9.853          10.832
  2410           8.969           1.453          18.174           1.876          10.875           9.897          10.876
  2420           8.969           1.453          18.175           1.883          10.920           9.942          10.921
  2430           8.970           1.453          18.175           1.891          10.965           9.987          10.966
  2440           8.970           1.453          18.176           1.899          11.009          10.032          11.011
  2450           8.970           1.453          18.176           1.906          11.054          10.077          11.056
  2460           8.970           1.453          18.177           1.914          11.099          10.122          11.100
  2470           8.971           1.453          18.177           1.922          11.144          10.166          11.145
  2480           8.971           1.453          18.178           1.930          11.189          10.211          11.190
  2490           8.971           1.453          18.178           1.937          11.234          10.256          11.235
  2500           8.971           1.453          18.179           1.945          11.278          10.301          11.280
  2510           8.971           1.453          18.179           1.953          11.323          10.346          11.325
  2520           8.972           1.453          18.180           1.961          11.368          10.391          11.369
  2530           8.972           1.453          18.180           1.968          11.413          10.435          11.414
  2540           8.972           1.453          18.181           1.976          11.458          10.480          11.459
  2550           8.972           1.453          18.181           1.984          11.503          10.525          11.504
  2560           8.973           1.453          18.181           1.991          11.547          10.570          11.549
  2570           8.973           1.453          18.182           1.999          11.592          10.615          11.594
  2580           8.973           1.453          18.182           2.007          11.637          10.660          11.638
  2590           8.973           1.453          18.183           2.015          11.682          10.704          11.683
  2600           8.973           1.453          18.183           2.022          11.727          10.749          11.728
  2610           8.974           1.453          18.184           2.030          11.772          10.794          11.773
  2620           8.974           1.453          18.184           2.038          11.816          10.839          11.818
  2630           8.974           1.453          18.184           2.046          11.861          10.884          11.863
  2640           8.974           1.453          18.185           2.053          11.906          10.929          11.907
  2650           8.974           1.453          18.185           2.061          11.951          10.973          11.952
  2660           8.975           1.453          18.185           2.069          11.996          11.018          11.997
  2670           8.975           1.453          18.186           2.077          12.041          11.063          12.042
  2680           8.975           1.453          18.186           2.084          12.086          11.108          12.087
  2690           8.975           1.453          18.187           2.092          12.130          11.153          12.132
  2700           8.975           1.453          18.187           2.100          12.175          11.198          12.176
  2710           8.976           1.453          18.187           2.107          12.220          11.243          12.221
  2720           8.976           1.453          18.188           2.115          12.265          11.287          12.266
  2730           8.976           1.453          18.188           2.123          12.310          11.332          12.311
  2740           8.976           1.453          18.188           2.131          12.355          11.377          12.356
  2750           8.976           1.453          18.189           2.138          12.400          11.422          12.401
  2760           8.976           1.453          18.189           2.146          12.444          11.467          12.446
  2770           8.977           1.453          18.189           2.154          12.489          11.512          12.490
  2780           8.977           1.453          18.190           2.162          12.534          11.557          12.535
  2790           8.977           1.453          18.190           2.169          12.579          11.601          12.580
  2800           8.977           1.453          18.190           2.177          12.624          11.646          12.625
  2810           8.977           1.453          18.191           2.185          12.669          11.691          12.670
  2820           8.977           1.453          18.191           2.193          12.714          11.736          12.715
  2830           8.978           1.453          18.191           2.200          12.758          11.781          12.760
  2840           8.978           1.453          18.192           2.208          12.803          11.826          12.804
  2850           8.978           1.453          18.192           2.216          12.848          11.871          12.849
  2860           8.978           1.453          18.192           2.224          12.893          11.915          12.894
  2870           8.978           1.453          18.193           2.231          12.938          11.960          12.939
  2880           8.978           1.453          18.193           2.239          12.983          12.005          12.984
  2890           8.978           1.453          18.193           2.247          13.028          12.050          13.029
  2900           8.979           1.453          18.193           2.254          13.072          12.095          13.074
  2910           8.979           1.453          18.194           2.262          13.117          12.140          13.118
  2920           8.979           1.453          18.194           2.270          13.162          12.185          13.163
  2930           8.979           1.453          18.194           2.278          13.207          12.230          13.208
  2940           8.979           1.453          18.195           2.285          13.252          12.274          13.253
  2950           8.979           1.453          18.195           2.293          13.297          12.319          13.298
  2960           8.979           1.453          18.195           2.301          13.342          12.364          13.343
  2970           8.980           1.453          18.195           2.309          13.387          12.409          13.388
  2980           8.980           1.453          18.196           2.316          13.431          12.454          13.433
  2990           8.980           1.453          18.196           2.324          13.476          12.499          13.477
  3000           8.980           1.453          18.196           2.332          13.521          12.544          13.522
  3010           8.980           1.453          18.197           2.340          13.566          12.588          13.567
  3020           8.980           1.453          18.197           2.347          13.611          12.633          13.612
  3030           8.980           1.453          18.197           2.355          13.656          12.678          13.657
  3040           8.981           1.453          18.197           2.363          13.701          12.723          13.702
  3050           8.981           1.453          18.198           2.371          13.746          12.768          13.747
  3060           8.981           1.453          18.198           2.378          13.790          12.813          13.792
  3070           8.981           1.453          18.198           2.386          13.835          12.858          13.836
  3080           8.981           1.453          18.198           2.394          13.880          12.903          13.881
  3090           8.981           1.453          18.199           2.402          13.925          12.948          13.926
  3100           8.981           1.453          18.199           2.409          13.970          12.992          13.971
  3110           8.981           1.453          18.199           2.417          14.015          13.037          14.016
  3120           8.982           1.453          18.199           2.425          14.060          13.082          14.061
  3130           8.982           1.453          18.199           2.432          14.105          13.127          14.106
  3140           8.982           1.453          18.200           2.440          14.149          13.172          14.151
  3150           8.982           1.453          18.200           2.448          14.194          13.217          14.195
  3160           8.982           1.453          18.200           2.456          14.239          13.262          14.240
  3170           8.982           1.453          18.200           2.463          14.284          13.307          14.285
  3180           8.982           1.453          18.201           2.471          14.329          13.351          14.330
  3190           8.982           1.453          18.201           2.479          14.374          13.396          14.375
  3200           8.982           1.453          18.201           2.487          14.419          13.441          14.420
  3210           8.983           1.453          18.201           2.494          14.464          13.486          14.465
  3220           8.983           1.453          18.201           2.502          14.509          13.531          14.510
  3230           8.983           1.453          18.202           2.510          14.553          13.576          14.554
  3240           8.983           1.453          18.202           2.518          14.598          13.621          14.599
  3250           8.983           1.453          18.202           2.525          14.643          13.666          14.644
  3260           8.983           1.453          18.202           2.533          14.688          13.711          14.689
  3270           8.983           1.453          18.203           2.541          14.733          13.755          14.734
  3280           8.983           1.453          18.203           2.549          14.778          13.800          14.779
  3290           8.983           1.453          18.203           2.556          14.823          13.845          14.824
  3300           8.983           1.453          18.203           2.564          14.868          13.890          14.869
  3310           8.984           1.453          18.203           2.572          14.913          13.935          14.914
  3320           8.984           1.453          18.204           2.580          14.957          13.980          14.958
  3330           8.984           1.453          18.204           2.587          15.002          14.025          15.003
  3340           8.984           1.453          18.204           2.595          15.047          14.070          15.048
  3350           8.984           1.453          18.204           2.603          15.092          14.115          15.093
  3360           8.984           1.453          18.204           2.611          15.137          14.159          15.138
  3370           8.984           1.453          18.204           2.618          15.182          14.204          15.183
  3380           8.984           1.453          18.205           2.626          15.227          14.249          15.228
  3390           8.984           1.453          18.205           2.634          15.272          14.294          15.273
  3400           8.984           1.453          18.205           2.641          15.317          14.339          15.318
  3410           8.985           1.453          18.205           2.649          15.362          14.384          15.362
  3420           8.985           1.453          18.205           2.657          15.406          14.429          15.407
  3430           8.985           1.453          18.206           2.665          15.451          14.474          15.452
  3440           8.985           1.453          18.206           2.672          15.496          14.519          15.497
  3450           8.985           1.453          18.206           2.680          15.541          14.564          15.542
  3460           8.985           1.453          18.206           2.688          15.586          14.608          15.587
  3470           8.985           1.453          18.206           2.696          15.631          14.653          15.632
  3480           8.985           1.453          18.206           2.703          15.676          14.698          15.677
  3490           8.985           1.453          18.207           2.711          15.721          14.743          15.722
  3500           8.985           1.453          18.207           2.719          15.766          14.788          15.767
  3510           8.985           1.453          18.207           2.727          15.810          14.833          15.811
  3520           8.985           1.453          18.207           2.734          15.855          14.878          15.856
  3530           8.986           1.453          18.207           2.742          15.900          14.923          15.901
  3540           8.986           1.453          18.207           2.750          15.945          14.968          15.946
  3550           8.986           1.453          18.208           2.758          15.990          15.013          15.991
  3560           8.986           1.453          18.208           2.765          16.035          15.057          16.036
  3570           8.986           1.453          18.208           2.773          16.080          15.102          16.081
  3580           8.986           1.453          18.208           2.781          16.125          15.147          16.126
  3590           8.986           1.453          18.208           2.789          16.170          15.192          16.171
  3600           8.986           1.453          18.208           2.796          16.215          15.237          16.216
  3610           8.986           1.453          18.209           2.804          16.260          15.282          16.260
  3620           8.986           1.453          18.209           2.812          16.304          15.327          16.305
  3630           8.986           1.453          18.209           2.820          16.349          15.372          16.350
  3640           8.986           1.453          18.209           2.827          16.394          15.417          16.395
  3650           8.986           1.453          18.209           2.835          16.439          15.462          16.440
  3660           8.987           1.453          18.209           2.843          16.484          15.507          16.485
  3670           8.987           1.453          18.209           2.851          16.529          15.551          16.530
  3680           8.987           1.453          18.210           2.858          16.574          15.596          16.575
  3690           8.987           1.453          18.210           2.866          16.619          15.641          16.620
  3700           8.987           1.453          18.210           2.874          16.664          15.686          16.665
  3710           8.987           1.453          18.210           2.882          16.709          15.731          16.709
  3720           8.987           1.453          18.210           2.889          16.753          15.776          16.754
  3730           8.987           1.453          18.210           2.897          16.798          15.821          16.799
  3740           8.987           1.453          18.210           2.905          16.843          15.866          16.844
  3750           8.987           1.453          18.211           2.912          16.888          15.911          16.889
  3760           8.987           1.453          18.211           2.920          16.933          15.956          16.934
  3770           8.987           1.453          18.211           2.928          16.978          16.000          16.979
  3780           8.987           1.453          18.211           2.936          17.023          16.045          17.024
  3790           8.987           1.453          18.211           2.943          17.068          16.090          17.069
  3800           8.988           1.453          18.211           2.951          17.113          16.135          17.114
  3810           8.988           1.453          18.211           2.959          17.158          16.180          17.159
  3820           8.988           1.453          18.211           2.967          17.203          16.225          17.203
  3830           8.988           1.453          18.212           2.974          17.248          16.270          17.248
  3840           8.988           1.453          18.212           2.982          17.292          16.315          17.293
  3850           8.988           1.453          18.212           2.990          17.337          16.360          17.338
  3860           8.988           1.453          18.212           2.998          17.382          16.405          17.383
  3870           8.988           1.453          18.212           3.005          17.427          16.450          17.428
  3880           8.988           1.453          18.212           3.013          17.472          16.495          17.473
  3890           8.988           1.453          18.212           3.021          17.517          16.539          17.518
  3900           8.988           1.453          18.212           3.029          17.562          16.584          17.563
  3910           8.988           1.453          18.213           3.036          17.607          16.629          17.608
  3920           8.988           1.453          18.213           3.044          17.652          16.674          17.653
  3930           8.988           1.453          18.213           3.052          17.697          16.719          17.697
  3940           8.988           1.453          18.213           3.060          17.742          16.764          17.742
  3950           8.988           1.453          18.213           3.067          17.786          16.809          17.787
  3960           8.989           1.453          18.213           3.075          17.831          16.854          17.832
  3970           8.989           1.453          18.213           3.083          17.876          16.899          17.877
  3980           8.989           1.453          18.213           3.091          17.921          16.944          17.922
  3990           8.989           1.453          18.214           3.098          17.966          16.989          17.967
  4000           8.989           1.453          18.214           3.106          18.011          17.034          18.012
  4010           8.989           1.453          18.214           3.114          18.056          17.078          18.057
  4020           8.989           1.453          18.214           3.122          18.101          17.123          18.102
  4030           8.989           1.453          18.214           3.129          18.146          17.168          18.147
  4040           8.989           1.453          18.214           3.137          18.191          17.213          18.192
  4050           8.989           1.453          18.214           3.145          18.236          17.258          18.236
  4060           8.989           1.453          18.214           3.153          18.281          17.303          18.281
  4070           8.989           1.453          18.214           3.160          18.325          17.348          18.326
  4080           8.989           1.453          18.214           3.168          18.370          17.393          18.371
  4090           8.989           1.453          18.215           3.176          18.415          17.438          18.416
  4100           8.989           1.453          18.215           3.184          18.460          17.483          18.461
  4110           8.989           1.453          18.215           3.191          18.505          17.528          18.506
  4120           8.989           1.453          18.215           3.199          18.550          17.573          18.551
  4130           8.989           1.453          18.215           3.207          18.595          17.617          18.596
  4140           8.989           1.453          18.215           3.215          18.640          17.662          18.641
  4150           8.990           1.453          18.215           3.222          18.685          17.707          18.686
  4160           8.990           1.453          18.215           3.230          18.730          17.752          18.731
  4170           8.990           1.453          18.215           3.238          18.775          17.797          18.775
  4180           8.990           1.453          18.216           3.246          18.820          17.842          18.820
  4190           8.990           1.453          18.216           3.253          18.865          17.887          18.865
  4200           8.990           1.453          18.216           3.261          18.909          17.932          18.910
  4210           8.990           1.453          18.216           3.269          18.954          17.977          18.955
  4220           8.990           1.453          18.216           3.277          18.999          18.022          19.000
  4230           8.990           1.453          18.216           3.284          19.044          18.067          19.045
  4240           8.990           1.453          18.216           3.292          19.089          18.112          19.090
  4250           8.990           1.453          18.216           3.300          19.134          18.157          19.135
  4260           8.990           1.453          18.216           3.308          19.179          18.201          19.180
  4270           8.990           1.453          18.216           3.315          19.224          18.246          19.225
  4280           8.990           1.453          18.216           3.323          19.269          18.291          19.270
  4290           8.990           1.453          18.217           3.331          19.314          18.336          19.315
  4300           8.990           1.453          18.217           3.339          19.359          18.381          19.359
  4310           8.990           1.453          18.217           3.346          19.404          18.426          19.404
  4320           8.990           1.453          18.217           3.354          19.449          18.471          19.449
  4330           8.990           1.453          18.217           3.362          19.493          18.516          19.494
  4340           8.990           1.453          18.217           3.370          19.538          18.561          19.539
  4350           8.990           1.453          18.217           3.377          19.583          18.606          19.584
  4360           8.991           1.453          18.217           3.385          19.628          18.651          19.629
  4370           8.991           1.453          18.217           3.393          19.673          18.696          19.674
  4380           8.991           1.453          18.217           3.401          19.718          18.741          19.719
  4390           8.991           1.453          18.217           3.408          19.763          18.785          19.764
  4400           8.991           1.453          18.217           3.416          19.808          18.830          19.809
  4410           8.991           1.453          18.218           3.424          19.853          18.875          19.854
  4420           8.991           1.453          18.218           3.431          19.898          18.920          19.899
  4430           8.991           1.453          18.218           3.439          19.943          18.965          19.943
  4440           8.991           1.453          18.218           3.447          19.988          19.010          19.988
  4450           8.991           1.453          18.218           3.455          20.033          19.055          20.033
  4460           8.991           1.453          18.218           3.462          20.078          19.100          20.078
  4470           8.991           1.453          18.218           3.470          20.122          19.145          20.123
  4480           8.991           1.453          18.218           3.478          20.167          19.190          20.168
  4490           8.991           1.453          18.218           3.486          20.212          19.235          20.213
  4500           8.991           1.453          18.218           3.493          20.257          19.280          20.258
  4510           8.991           1.453          18.218           3.501          20.302          19.325          20.303
  4520           8.991           1.453          18.218           3.509          20.347          19.370          20.348
  4530           8.991           1.453          18.219           3.517          20.392          19.414          20.393
  4540           8.991           1.453          18.219           3.524          20.437          19.459          20.438
  4550           8.991           1.453          18.219           3.532          20.482          19.504          20.483
  4560           8.991           1.453          18.219           3.540          20.527          19.549          20.528
  4570           8.991           1.453          18.219           3.548          20.572          19.594          20.572
  4580           8.991           1.453          18.219           3.555          20.617          19.639          20.617
  4590           8.991           1.453          18.219           3.563          20.662          19.684          20.662
  4600           8.991           1.453          18.219           3.571          20.707          19.729          20.707
  4610           8.992           1.453          18.219           3.579          20.751          19.774          20.752
  4620           8.992           1.453          18.219           3.586          20.796          19.819          20.797
  4630           8.992           1.453          18.219           3.594          20.841          19.864          20.842
  4640           8.992           1.453          18.219           3.602          20.886          19.909          20.887
  4650           8.992           1.453          18.219           3.610          20.931          19.954          20.932
  4660           8.992           1.453          18.220           3.617          20.976          19.999          20.977
  4670           8.992           1.453          18.220           3.625          21.021          20.044          21.022
  4680           8.992           1.453          18.220           3.633          21.066          20.088          21.067
  4690           8.992           1.453          18.220           3.641          21.111          20.133          21.112
  4700           8.992           1.453          18.220           3.648          21.156          20.178          21.157
  4710           8.992           1.453          18.220           3.656          21.201          20.223          21.201
  4720           8.992           1.453          18.220           3.664          21.246          20.268          21.246
  4730           8.992           1.453          18.220           3.672          21.291          20.313          21.291
  4740           8.992           1.453          18.220           3.679          21.336          20.358          21.336
  4750           8.992           1.453          18.220           3.687          21.381          20.403          21.381
  4760           8.992           1.453          18.220           3.695          21.425          20.448          21.426
  4770           8.992           1.453          18.220           3.703          21.470          20.493          21.471
  4780           8.992           1.453          18.220           3.710          21.515          20.538          21.516
  4790           8.992           1.453          18.220           3.718          21.560          20.583          21.561
  4800           8.992           1.453          18.220           3.726          21.605          20.628          21.606
  4810           8.992           1.453          18.221           3.734          21.650          20.673          21.651
  4820           8.992           1.453          18.221           3.741          21.695          20.718          21.696
  4830           8.992           1.453          18.221           3.749          21.740          20.762          21.741
  4840           8.992           1.453          18.221           3.757          21.785          20.807          21.786
  4850           8.992           1.453          18.221           3.765          21.830          20.852          21.831
  4860           8.992           1.453          18.221           3.772          21.875          20.897          21.875
  4870           8.992           1.453          18.221           3.780          21.920          20.942          21.920
  4880           8.992           1.453          18.221           3.788          21.965          20.987          21.965
  4890           8.992           1.453          18.221           3.796          22.010          21.032          22.010
  4900           8.992           1.453          18.221           3.803          22.055          21.077          22.055
  4910           8.993           1.453          18.221           3.811          22.099          21.122          22.100
  4920           8.993           1.453          18.221           3.819          22.144          21.167          22.145
  4930           8.993           1.453          18.221           3.827          22.189          21.212          22.190
  4940           8.993           1.453          18.221           3.834          22.234          21.257          22.235
  4950           8.993           1.453          18.221           3.842          22.279          21.302          22.280
  4960           8.993           1.453          18.221           3.850          22.324          21.347          22.325
  4970           8.993           1.453          18.221           3.858          22.369          21.392          22.370
  4980           8.993           1.453          18.222           3.865          22.414          21.436          22.415
  4990           8.993           1.453          18.222           3.873          22.459          21.481          22.460
  5000           8.993           1.453          18.222           3.881          22.504          21.526          22.505
  5010           8.993           1.453          18.222           3.889          22.549          21.571          22.549
  5020           8.993           1.453          18.222           3.896          22.594          21.616          22.594
  5030           8.993           1.453          18.222           3.904          22.639          21.661          22.639
  5040           8.993           1.453          18.222           3.912          22.684          21.706          22.684
  5050           8.993           1.453          18.222           3.920          22.729          21.751          22.729
  5060           8.993           1.453          18.222           3.927          22.774          21.796          22.774
  5070           8.993           1.453          18.222           3.935          22.818          21.841          22.819
  5080           8.993           1.453          18.222           3.943          22.863          21.886          22.864
  5090           8.993           1.453          18.222           3.951          22.908          21.931          22.909
  5100           8.993           1.453          18.222           3.958          22.953          21.976          22.954
  5110           8.993           1.453          18.222           3.966          22.998          22.021          22.999
  5120           8.993           1.453          18.222           3.974          23.043          22.066          23.044
  5130           8.993           1.453          18.222           3.982          23.088          22.111          23.089
  5140           8.993           1.453          18.222           3.989          23.133          22.155          23.134
  5150           8.993           1.453          18.222           3.997          23.178          22.200          23.179
  5160           8.993           1.453          18.223           4.005          23.223          22.245          23.224
  5170           8.993           1.453          18.223           4.013          23.268          22.290          23.268
  5180           8.993           1.453          18.223           4.020          23.313          22.335          23.313
  5190           8.993           1.453          18.223           4.028          23.358          22.380          23.358
  5200           8.993           1.453          18.223           4.036          23.403          22.425          23.403
  5210           8.993           1.453          18.223           4.044          23.448          22.470          23.448
  5220           8.993           1.453          18.223           4.051          23.493          22.515          23.493
  5230           8.993           1.453          18.223           4.059          23.537          22.560          23.538
  5240           8.993           1.453          18.223           4.067          23.582          22.605          23.583
  5250           8.993           1.453          18.223           4.075          23.627          22.650          23.628
  5260           8.993           1.453          18.223           4.082          23.672          22.695          23.673
  5270           8.994           1.453          18.223           4.090          23.717          22.740          23.718
  5280           8.994           1.453          18.223           4.098          23.762          22.785          23.763
  5290           8.994           1.453          18.223           4.106          23.807          22.830          23.808
  5300           8.994           1.453          18.223           4.113          23.852          22.875          23.853
  5310           8.994           1.453          18.223           4.121          23.897          22.919          23.898
  5320           8.994           1.453          18.223           4.129          23.942          22.964          23.943
  5330           8.994           1.453          18.223           4.137          23.987          23.009          23.988
  5340           8.994           1.453          18.223           4.144          24.032          23.054          24.032
  5350           8.994           1.453          18.223           4.152          24.077          23.099          24.077
  5360           8.994           1.453          18.224           4.160          24.122          23.144          24.122
  5370           8.994           1.453          18.224           4.168          24.167          23.189          24.167
  5380           8.994           1.453          18.224           4.175          24.212          23.234          24.212
  5390           8.994           1.453          18.224           4.183          24.257          23.279          24.257
  5400           8.994           1.453          18.224           4.191          24.301          23.324          24.302
  5410           8.994           1.453          18.224           4.199          24.346          23.369          24.347
  5420           8.994           1.453          18.224           4.206          24.391          23.414          24.392
  5430           8.994           1.453          18.224           4.214          24.436          23.459          24.437
  5440           8.994           1.453          18.224           4.222          24.481          23.504          24.482
  5450           8.994           1.453          18.224           4.230          24.526          23.549          24.527
  5460           8.994           1.453          18.224           4.237          24.571          23.594          24.572
  5470           8.994           1.453          18.224           4.245          24.616          23.639          24.617
  5480           8.994           1.453          18.224           4.253          24.661          23.683          24.662
  5490           8.994           1.453          18.224           4.261          24.706          23.728          24.707
  5500           8.994           1.453          18.224           4.268          24.751          23.773          24.752
  5510           8.994           1.453          18.224           4.276          24.796          23.818          24.796
  5520           8.994           1.453          18.224           4.284          24.841          23.863          24.841
  5530           8.994           1.453          18.224           4.292          24.886          23.908          24.886
  5540           8.994           1.453          18.224           4.299          24.931          23.953          24.931
  5550           8.994           1.453          18.224           4.307          24.976          23.998          24.976
  5560           8.994           1.453          18.224           4.315          25.021          24.043          25.021
  5570           8.994           1.453          18.224           4.323          25.066          24.088          25.066
  5580           8.994           1.453          18.224           4.330          25.110          24.133          25.111
  5590           8.994           1.453          18.225           4.338          25.155          24.178          25.156
  5600           8.994           1.453          18.225           4.346          25.200          24.223          25.201
  5610           8.994           1.453          18.225           4.354          25.245          24.268          25.246
  5620           8.994           1.453          18.225           4.361          25.290          24.313          25.291
  5630           8.994           1.453          18.225           4.369          25.335          24.358          25.336
  5640           8.994           1.453          18.225           4.377          25.380          24.403          25.381
  5650           8.994           1.453          18.225           4.385          25.425          24.448          25.426
  5660           8.994           1.453          18.225           4.392          25.470          24.492          25.471
  5670           8.994           1.453          18.225           4.400          25.515          24.537          25.516
  5680           8.994           1.453          18.225           4.408          25.560          24.582          25.560
  5690           8.994           1.453          18.225           4.416          25.605          24.627          25.605
  5700           8.994           1.453          18.225           4.423          25.650          24.672          25.650
  5710           8.994           1.453          18.225           4.431          25.695          24.717          25.695
  5720           8.994           1.453          18.225           4.439          25.740          24.762          25.740
  5730           8.995           1.453          18.225           4.447          25.785          24.807          25.785
  5740           8.995           1.453          18.225           4.454          25.830          24.852          25.830
  5750           8.995           1.453          18.225           4.462          25.875          24.897          25.875
  5760           8.995           1.453          18.225           4.470          25.919          24.942          25.920
  5770           8.995           1.453          18.225           4.478          25.964          24.987          25.965
  5780           8.995           1.453          18.225           4.485          26.009          25.032          26.010
  5790           8.995           1.453          18.225           4.493          26.054          25.077          26.055
  5800           8.995           1.453          18.225           4.501          26.099          25.122          26.100
  5810           8.995           1.453          18.225           4.509          26.144          25.167          26.145
  5820           8.995           1.453          18.225           4.516          26.189          25.212          26.190
  5830           8.995           1.453          18.225           4.524          26.234          25.257          26.235
  5840           8.995           1.453          18.225           4.532          26.279          25.301          26.280
  5850           8.995           1.453          18.226           4.540          26.324          25.346          26.325
  5860           8.995           1.453          18.226           4.547          26.369          25.391          26.369
  5870           8.995           1.453          18.226           4.555          26.414          25.436          26.414
  5880           8.995           1.453          18.226           4.563          26.459          25.481          26.459
  5890           8.995           1.453          18.226           4.571          26.504          25.526          26.504
  5900           8.995           1.453          18.226           4.578          26.549          25.571          26.549
  5910           8.995           1.453          18.226           4.586          26.594          25.616          26.594
  5920           8.995           1.453          18.226           4.594          26.639          25.661          26.639
  5930           8.995           1.453          18.226           4.602          26.684          25.706          26.684
  5940           8.995           1.453          18.226           4.609          26.728          25.751          26.729
  5950           8.995           1.453          18.226           4.617          26.773          25.796          26.774
  5960           8.995           1.453          18.226           4.625          26.818          25.841          26.819
  5970           8.995           1.453          18.226           4.633          26.863          25.886          26.864
  5980           8.995           1.453          18.226           4.640          26.908          25.931          26.909
  5990           8.995           1.453          18.226           4.648          26.953          25.976          26.954
  6000           8.995           1.453          18.226           4.656          26.998          26.021          26.999
  6010           8.995           1.453          18.226           4.664          27.043          26.066          27.044
  6020           8.995           1.453          18.226           4.671          27.088          26.111          27.089
  6030           8.995           1.453          18.226           4.679          27.133          26.155          27.134
  6040           8.995           1.453          18.226           4.687          27.178          26.200          27.179
  6050           8.995           1.453          18.226           4.695          27.223          26.245          27.223
  6060           8.995           1.453          18.226           4.702          27.268          26.290          27.268
  6070           8.995           1.453          18.226           4.710          27.313          26.335          27.313
  6080           8.995           1.453          18.226           4.718          27.358          26.380          27.358
  6090           8.995           1.453          18.226           4.726          27.403          26.425          27.403
  6100           8.995           1.453          18.226           4.733          27.448          26.470          27.448
  6110           8.995           1.453          18.226           4.741          27.493          26.515          27.493
  6120           8.995           1.453          18.226           4.749          27.538          26.560          27.538
  6130           8.995           1.453          18.226           4.757          27.583          26.605          27.583
  6140           8.995           1.453          18.226           4.764          27.627          26.650          27.628
  6150           8.995           1.453          18.227           4.772          27.672          26.695          27.673
  6160           8.995           1.453          18.227           4.780          27.717          26.740          27.718
  6170           8.995           1.453          18.227           4.788          27.762          26.785          27.763
  6180           8.995           1.453          18.227           4.795          27.807          26.830          27.808
  6190           8.995           1.453          18.227           4.803          27.852          26.875          27.853
  6200           8.995           1.453          18.227           4.811          27.897          26.920          27.898
  6210           8.995           1.453          18.227           4.819          27.942          26.965          27.943
  6220           8.995           1.453          18.227           4.826          27.987          27.010          27.988
  6230           8.995           1.453          18.227           4.834          28.032          27.054          28.033
  6240           8.995           1.453          18.227           4.842          28.077          27.099          28.077
  6250           8.995           1.453          18.227           4.850          28.122          27.144          28.122
  6260           8.995           1.453          18.227           4.857          28.167          27.189          28.167
  6270           8.995           1.453          18.227           4.865          28.212          27.234          28.212
  6280           8.995           1.453          18.227           4.873          28.257          27.279          28.257
  6290           8.995           1.453          18.227           4.881          28.302          27.324          28.302
  6300           8.995           1.453          18.227           4.888          28.347          27.369          28.347
  6310           8.995           1.453          18.227           4.896          28.392          27.414          28.392
  6320           8.995           1.453          18.227           4.904          28.437          27.459          28.437
  6330           8.996           1.453          18.227           4.912          28.482          27.504          28.482
  6340           8.996           1.453          18.227           4.920          28.526          27.549          28.527
  6350           8.996           1.453          18.227           4.927          28.571          27.594          28.572
  6360           8.996           1.453          18.227           4.935          28.616          27.639          28.617
  6370           8.996           1.453          18.227           4.943          28.661          27.684          28.662
  6380           8.996           1.453          18.227           4.951          28.706          27.729          28.707
  6390           8.996           1.453          18.227           4.958          28.751          27.774          28.752
  6400           8.996           1.453          18.227           4.966          28.796          27.819          28.797
  6410           8.996           1.453          18.227           4.974          28.841          27.864          28.842
  6420           8.996           1.453          18.227           4.982          28.886          27.909          28.887
  6430           8.996           1.453          18.227           4.989          28.931          27.953          28.932
  6440           8.996           1.453          18.227           4.997          28.976          27.998          28.976
  6450           8.996           1.453          18.227           5.005          29.021          28.043          29.021
  6460           8.996           1.453          18.227           5.013          29.066          28.088          29.066
  6470           8.996           1.453          18.227           5.020          29.111          28.133          29.111
  6480           8.996           1.453          18.227           5.028          29.156          28.178          29.156
  6490           8.996           1.453          18.227           5.036          29.201          28.223          29.201
  6500           8.996           1.453          18.228           5.044          29.246          28.268          29.246
  6510           8.996           1.453          18.228           5.051          29.291          28.313          29.291
  6520           8.996           1.453          18.228           5.059          29.336          28.358          29.336
  6530           8.996           1.453          18.228           5.067          29.381          28.403          29.381
  6540           8.996           1.453          18.228           5.075          29.425          28.448          29.426
  6550           8.996           1.453          18.228           5.082          29.470          28.493          29.471
  6560           8.996           1.453          18.228           5.090          29.515          28.538          29.516
  6570           8.996           1.453          18.228           5.098          29.560          28.583          29.561
  6580           8.996           1.453          18.228           5.106          29.605          28.628          29.606
  6590           8.996           1.453          18.228           5.113          29.650          28.673          29.651
  6600           8.996           1.453          18.228           5.121          29.695          28.718          29.696
  6610           8.996           1.453          18.228           5.129          29.740          28.763          29.741
  6620           8.996           1.453          18.228           5.137          29.785          28.808          29.786
  6630           8.996           1.453          18.228           5.144          29.830          28.853          29.831
  6640           8.996           1.453          18.228           5.152          29.875          28.897          29.875
  6650           8.996           1.453          18.228           5.160          29.920          28.942          29.920
  6660           8.996           1.453          18.228           5.168          29.965          28.987          29.965
  6670           8.996           1.453          18.228           5.175          30.010          29.032          30.010
  6680           8.996           1.453          18.228           5.183          30.055          29.077          30.055
  6690           8.996           1.453          18.228           5.191          30.100          29.122          30.100
  6700           8.996           1.453          18.228           5.199          30.145          29.167          30.145
  6710           8.996           1.453          18.228           5.206          30.190          29.212          30.190
  6720           8.996           1.453          18.228           5.214          30.235          29.257          30.235
  6730           8.996           1.453          18.228           5.222          30.280          29.302          30.280
  6740           8.996           1.453          18.228           5.230          30.325          29.347          30.325
  6750           8.996           1.453          18.228           5.237          30.369          29.392          30.370
  6760           8.996           1.453          18.228           5.245          30.414          29.437          30.415
  6770           8.996           1.453          18.228           5.253          30.459          29.482          30.460
  6780           8.996           1.453          18.228           5.261          30.504          29.527          30.505
  6790           8.996           1.453          18.228           5.268          30.549          29.572          30.550
  6800           8.996           1.453          18.228           5.276          30.594          29.617          30.595
  6810           8.996           1.453          18.228           5.284          30.639          29.662          30.640
  6820           8.996           1.453          18.228           5.292          30.684          29.707          30.685
  6830           8.996           1.453          18.228           5.299          30.729          29.752          30.730
  6840           8.996           1.453          18.228           5.307          30.774          29.797          30.775
  6850           8.996           1.453          18.228           5.315          30.819          29.841          30.819
  6860           8.996           1.453          18.228           5.323          30.864          29.886          30.864
  6870           8.996           1.453          18.228           5.330          30.909          29.931          30.909
  6880           8.996           1.453          18.228           5.338          30.954          29.976          30.954
  6890           8.996           1.453          18.228           5.346          30.999          30.021          30.999
  6900           8.996           1.453          18.228           5.354          31.044          30.066          31.044
  6910           8.996           1.453          18.228           5.361          31.089          30.111          31.089
  6920           8.996           1.453          18.229           5.369          31.134          30.156          31.134
  6930           8.996           1.453          18.229           5.377          31.179          30.201          31.179
  6940           8.996           1.453          18.229           5.385          31.224          30.246          31.224
  6950           8.996           1.453          18.229           5.392          31.269          30.291          31.269
  6960           8.996           1.453          18.229           5.400          31.313          30.336          31.314
  6970           8.996           1.453          18.229           5.408          31.358          30.381          31.359
  6980           8.996           1.453          18.229           5.416          31.403          30.426          31.404
  6990           8.996           1.453          18.229           5.423          31.448          30.471          31.449
  7000           8.996           1.453          18.229           5.431          31.493          30.516          31.494
  7010           8.996           1.453          18.229           5.439          31.538          30.561          31.539
  7020           8.996           1.453          18.229           5.447          31.583          30.606          31.584
  7030           8.996           1.453          18.229           5.454          31.628          30.651          31.629
  7040           8.996           1.453          18.229           5.462          31.673          30.696          31.674
  7050           8.996           1.453          18.229           5.470          31.718          30.741          31.719
  7060           8.996           1.453          18.229           5.478          31.763          30.786          31.764
  7070           8.996           1.453          18.229           5.485          31.808          30.830          31.808
  7080           8.996           1.453          18.229           5.493          31.853          30.875          31.853
  7090           8.996           1.453          18.229           5.501          31.898          30.920          31.898
  7100           8.996           1.453          18.229           5.509          31.943          30.965          31.943
  7110           8.996           1.453          18.229           5.516          31.988          31.010          31.988
  7120           8.996           1.453          18.229           5.524          32.033          31.055          32.033
  7130           8.996           1.453          18.229           5.532          32.078          31.100          32.078
  7140           8.996           1.453          18.229           5.540          32.123          31.145          32.123
  7150           8.996           1.453          18.229           5.547          32.168          31.190          32.168
  7160           8.996           1.453          18.229           5.555          32.213          31.235          32.213
  7170           8.996           1.453          18.229           5.563          32.258          31.280          32.258
  7180           8.997           1.453          18.229           5.571          32.303          31.325          32.303
  7190           8.997           1.453          18.229           5.578          32.347          31.370          32.348
  7200           8.997           1.453          18.229           5.586          32.392          31.415          32.393
  7210           8.997           1.453          18.229           5.594          32.437          31.460          32.438
  7220           8.997           1.453          18.229           5.602          32.482          31.505          32.483
  7230           8.997           1.453          18.229           5.609          32.527          31.550          32.528
  7240           8.997           1.453          18.229           5.617          32.572          31.595          32.573
  7250           8.997           1.453          18.229           5.625          32.617          31.640          32.618
  7260           8.997           1.453          18.229           5.633          32.662          31.685          32.663
  7270           8.997           1.453          18.229           5.640          32.707          31.730          32.708
  7280           8.997           1.453          18.229           5.648          32.752          31.775          32.753
  7290           8.997           1.453          18.229           5.656          32.797          31.819          32.797
  7300           8.997           1.453          18.229           5.664          32.842          31.864          32.842
  7310           8.997           1.453          18.229           5.671          32.887          31.909          32.887
  7320           8.997           1.453          18.229           5.679          32.932          31.954          32.932
  7330           8.997           1.453          18.229           5.687          32.977          31.999          32.977
  7340           8.997           1.453          18.229           5.695          33.022          32.044          33.022
  7350           8.997           1.453          18.229           5.702          33.067          32.089          33.067
  7360           8.997           1.453          18.229           5.710          33.112          32.134          33.112
  7370           8.997           1.453          18.229           5.718          33.157          32.179          33.157
  7380           8.997           1.453          18.229           5.726          33.202          32.224          33.202
  7390           8.997           1.453          18.229           5.733          33.247          32.269          33.247
  7400           8.997           1.453          18.229           5.741          33.292          32.314          33.292
  7410           8.997           1.453          18.229           5.749          33.336          32.359          33.337
  7420           8.997           1.453          18.229           5.757          33.381          32.404          33.382
  7430           8.997           1.453          18.230           5.765          33.426          32.449          33.427
  7440           8.997           1.453          18.230           5.772          33.471          32.494          33.472
  7450           8.997           1.453          18.230           5.780          33.516          32.539          33.517
  7460           8.997           1.453          18.230           5.788          33.561          32.584          33.562
  7470           8.997           1.453          18.230           5.796          33.606          32.629          33.607
  7480           8.997           1.453          18.230           5.803          33.651          32.674          33.652
  7490           8.997           1.453          18.230           5.811          33.696          32.719          33.697
  7500           8.997           1.453          18.230           5.819          33.741          32.764          33.742
  7510           8.997           1.453          18.230           5.827          33.786          32.809          33.786
  7520           8.997           1.453          18.230           5.834          33.831          32.853          33.831
  7530           8.997           1.453          18.230           5.842          33.876          32.898          33.876
  7540           8.997           1.453          18.230           5.850          33.921          32.943          33.921
  7550           8.997           1.453          18.230           5.858          33.966          32.988          33.966
  7560           8.997           1.453          18.230           5.865          34.011          33.033          34.011
  7570           8.997           1.453          18.230           5.873          34.056          33.078          34.056
  7580           8.997           1.453          18.230           5.881          34.101          33.123          34.101
  7590           8.997           1.453          18.230           5.889          34.146          33.168          34.146
  7600           8.997           1.453          18.230           5.896          34.191          33.213          34.191
  7610           8.997           1.453          18.230           5.904          34.236          33.258          34.236
  7620           8.997           1.453          18.230           5.912          34.281          33.303          34.281
  7630           8.997           1.453          18.230           5.920          34.326          33.348          34.326
  7640           8.997           1.453          18.230           5.927          34.370          33.393          34.371
  7650           8.997           1.453          18.230           5.935          34.415          33.438          34.416
  7660           8.997           1.453          18.230           5.943          34.460          33.483          34.461
  7670           8.997           1.453          18.230           5.951          34.505          33.528          34.506
  7680           8.997           1.453          18.230           5.958          34.550          33.573          34.551
  7690           8.997           1.453          18.230           5.966          34.595          33.618          34.596
  7700           8.997           1.453          18.230           5.974          34.640          33.663          34.641
  7710           8.997           1.453          18.230           5.982          34.685          33.708          34.686
  7720           8.997           1.453          18.230           5.989          34.730          33.753          34.731
  7730           8.997           1.453          18.230           5.997          34.775          33.798          34.776
  7740           8.997           1.453          18.230           6.005          34.820          33.843          34.820
  7750           8.997           1.453          18.230           6.013          34.865          33.888          34.865
  7760           8.997           1.453          18.230           6.020          34.910          33.932          34.910
  7770           8.997           1.453          18.230           6.028          34.955          33.977          34.955
  7780           8.997           1.453          18.230           6.036          35.000          34.022          35.000
  7790           8.997           1.453          18.230           6.044          35.045          34.067          35.045
  7800           8.997           1.453          18.230           6.051          35.090          34.112          35.090
  7810           8.997           1.453          18.230           6.059          35.135          34.157          35.135
  7820           8.997           1.453          18.230           6.067          35.180          34.202          35.180
  7830           8.997           1.453          18.230           6.075          35.225          34.247          35.225
  7840           8.997           1.453          18.230           6.082          35.270          34.292          35.270
  7850           8.997           1.453          18.230           6.090          35.315          34.337          35.315
  7860           8.997           1.453          18.230           6.098          35.360          34.382          35.360
  7870           8.997           1.453          18.230           6.106          35.405          34.427          35.405
  7880           8.997           1.453          18.230           6.113          35.449          34.472          35.450
  7890           8.997           1.453          18.230           6.121          35.494          34.517          35.495
  7900           8.997           1.453          18.230           6.129          35.539          34.562          35.540
  7910           8.997           1.453          18.230           6.137          35.584          34.607          35.585
  7920           8.997           1.453          18.230           6.144          35.629          34.652          35.630
  7930           8.997           1.453          18.230           6.152          35.674          34.697          35.675
  7940           8.997           1.453          18.230           6.160          35.719          34.742          35.720
  7950           8.997           1.453          18.230           6.168          35.764          34.787          35.765
  7960           8.997           1.453          18.230           6.175          35.809          34.832          35.810
  7970           8.997           1.453          18.230           6.183          35.854          34.877          35.855
  7980           8.997           1.453          18.230           6.191          35.899          34.922          35.899
  7990           8.997           1.453          18.230           6.199          35.944          34.966          35.944
  8000           8.997           1.453          18.230           6.206          35.989          35.011          35.989
  8010           8.997           1.453          18.230           6.214          36.034          35.056          36.034
  8020           8.997           1.453          18.230           6.222          36.079          35.101          36.079
  8030           8.997           1.453          18.230           6.230          36.124          35.146          36.124
  8040           8.997           1.453          18.230           6.237          36.169          35.191          36.169
  8050           8.997           1.453          18.230           6.245          36.214          35.236          36.214
  8060           8.997           1.453          18.230           6.253          36.259          35.281          36.259
  8070           8.997           1.453          18.231           6.261          36.304          35.326          36.304
  8080           8.997           1.453          18.231           6.268          36.349          35.371          36.349
  8090           8.997           1.453          18.231           6.276          36.394          35.416          36.394
  8100           8.997           1.453          18.231           6.284          36.439          35.461          36.439
  8110           8.997           1.453          18.231           6.292          36.484          35.506          36.484
  8120           8.997           1.453          18.231           6.299          36.528          35.551          36.529
  8130           8.997           1.453          18.231           6.307          36.573          35.596          36.574
  8140           8.997           1.453          18.231           6.315          36.618          35.641          36.619
  8150           8.997           1.453          18.231           6.323          36.663          35.686          36.664
  8160           8.997           1.453          18.231           6.330          36.708          35.731          36.709
  8170           8.997           1.453          18.231           6.338          36.753          35.776          36.754
  8180           8.997           1.453          18.231           6.346          36.798          35.821          36.799
  8190           8.997           1.453          18.231           6.354          36.843          35.866          36.844
  8200           8.997           1.453          18.231           6.361          36.888          35.911          36.889
  8210           8.997           1.453          18.231           6.369          36.933          35.956          36.934
  8220           8.997           1.453          18.231           6.377          36.978          36.001          36.978
  8230           8.997           1.453          18.231           6.385          37.023          36.046          37.023
  8240           8.997           1.453          18.231           6.393          37.068          36.090          37.068
  8250           8.997           1.453          18.231           6.400          37.113          36.135          37.113
  8260           8.997           1.453          18.231           6.408          37.158          36.180          37.158
  8270           8.997           1.453          18.231           6.416          37.203          36.225          37.203
  8280           8.997           1.453          18.231           6.424          37.248          36.270          37.248
  8290           8.997           1.453          18.231           6.431          37.293          36.315          37.293
  8300           8.997           1.453          18.231           6.439          37.338          36.360          37.338
  8310           8.997           1.453          18.231           6.447          37.383          36.405          37.383
  8320           8.997           1.453          18.231           6.455          37.428          36.450          37.428
  8330           8.997           1.453          18.231           6.462          37.473          36.495          37.473
  8340           8.997           1.453          18.231           6.470          37.518          36.540          37.518
  8350           8.997           1.453          18.231           6.478          37.563          36.585          37.563
  8360           8.997           1.453          18.231           6.486          37.608          36.630          37.608
  8370           8.997           1.453          18.231           6.493          37.652          36.675          37.653
  8380           8.997           1.453          18.231           6.501          37.697          36.720          37.698
  8390           8.997           1.453          18.231           6.509          37.742          36.765          37.743
  8400           8.997           1.453          18.231           6.517          37.787          36.810          37.788
  8410           8.997           1.453          18.231           6.524          37.832          36.855          37.833
  8420           8.997           1.453          18.231           6.532          37.877          36.900          37.878
  8430           8.997           1.453          18.231           6.540          37.922          36.945          37.923
  8440           8.997           1.453          18.231           6.548          37.967          36.990          37.968
  8450           8.997           1.453          18.231           6.555          38.012          37.035          38.013
  8460           8.997           1.453          18.231           6.563          38.057          37.080          38.057
  8470           8.997           1.453          18.231           6.571          38.102          37.125          38.102
  8480           8.997           1.453          18.231           6.579          38.147          37.170          38.147
  8490           8.997           1.453          18.231           6.586          38.192          37.214          38.192
  8500           8.998           1.453          18.231           6.594          38.237          37.259          38.237
  8510           8.998           1.453          18.231           6.602          38.282          37.304          38.282
  8520           8.998           1.453          18.231           6.610          38.327          37.349          38.327
  8530           8.998           1.453          18.231           6.617          38.372          37.394          38.372
  8540           8.998           1.453          18.231           6.625          38.417          37.439          38.417
  8550           8.998           1.453          18.231           6.633          38.462          37.484          38.462
  8560           8.998           1.453          18.231           6.641          38.507          37.529          38.507
  8570           8.998           1.453          18.231           6.648          38.552          37.574          38.552
  8580           8.998           1.453          18.231           6.656          38.597          37.619          38.597
  8590           8.998           1.453          18.231           6.664          38.642          37.664          38.642
  8600           8.998           1.453          18.231           6.672          38.687          37.709          38.687
  8610           8.998           1.453          18.231           6.679          38.732          37.754          38.732
  8620           8.998           1.453          18.231           6.687          38.776          37.799          38.777
  8630           8.998           1.453          18.231           6.695          38.821          37.844          38.822
  8640           8.998           1.453          18.231           6.703          38.866          37.889          38.867
  8650           8.998           1.453          18.231           6.710          38.911          37.934          38.912
  8660           8.998           1.453          18.231           6.718          38.956          37.979          38.957
  8670           8.998           1.453          18.231           6.726          39.001          38.024          39.002
  8680           8.998           1.453          18.231           6.734          39.046          38.069          39.047
  8690           8.998           1.453          18.231           6.741          39.091          38.114          39.092
  8700           8.998           1.453          18.231           6.749          39.136          38.159          39.137
  8710           8.998           1.453          18.231           6.757          39.181          38.204          39.181
  8720           8.998           1.453          18.231           6.765          39.226          38.249          39.226
  8730           8.998           1.453          18.231           6.772          39.271          38.294          39.271
  8740           8.998           1.453          18.231           6.780          39.316          38.338          39.316
  8750           8.998           1.453          18.231           6.788          39.361          38.383          39.361
  8760           8.998           1.453          18.231           6.796          39.406          38.428          39.406
  8770           8.998           1.453          18.231           6.803          39.451          38.473          39.451
  8780           8.998           1.453          18.231           6.811          39.496          38.518          39.496
  8790           8.998           1.453          18.231           6.819          39.541          38.563          39.541
  8800           8.998           1.453          18.231           6.827          39.586          38.608          39.586
  8810           8.998           1.453          18.231           6.834          39.631          38.653          39.631
  8820           8.998           1.453          18.231           6.842          39.676          38.698          39.676
  8830           8.998           1.453          18.231           6.850          39.721          38.743          39.721
  8840           8.998           1.453          18.231           6.858          39.766          38.788          39.766
  8850           8.998           1.453          18.231           6.865          39.811          38.833          39.811
  8860           8.998           1.453          18.231           6.873          39.856          38.878          39.856
  8870           8.998           1.453          18.231           6.881          39.900          38.923          39.901
  8880           8.998           1.453          18.231           6.889          39.945          38.968          39.946
  8890           8.998           1.453          18.231           6.896          39.990          39.013          39.991
  8900           8.998           1.453          18.231           6.904          40.035          39.058          40.036
  8910           8.998           1.453          18.231           6.912          40.080          39.103          40.081
  8920           8.998           1.453          18.231           6.920          40.125          39.148          40.126
  8930           8.998           1.453          18.232           6.927          40.170          39.193          40.171
  8940           8.998           1.453          18.232           6.935          40.215          39.238          40.216
  8950           8.998           1.453          18.232           6.943          40.260          39.283          40.261
  8960           8.998           1.453          18.232           6.951          40.305          39.328          40.306
  8970           8.998           1.453          18.232           6.959          40.350          39.373          40.350
  8980           8.998           1.453          18.232           6.966          40.395          39.418          40.395
  8990           8.998           1.453          18.232           6.974          40.440          39.463          40.440
  9000           8.998           1.453          18.232           6.982          40.485          39.507          40.485
  9010           8.998           1.453          18.232           6.990          40.530          39.552          40.530
  9020           8.998           1.453          18.232           6.997          40.575          39.597          40.575
  9030           8.998           1.453          18.232           7.005          40.620          39.642          40.620
  9040           8.998           1.453          18.232           7.013          40.665          39.687          40.665
  9050           8.998           1.453          18.232           7.021          40.710          39.732          40.710
  9060           8.998           1.453          18.232           7.028          40.755          39.777          40.755
  9070           8.998           1.453          18.232           7.036          40.800          39.822          40.800
  9080           8.998           1.453          18.232           7.044          40.845          39.867          40.845
  9090           8.998           1.453          18.232           7.052          40.890          39.912          40.890
  9100           8.998           1.453          18.232           7.059          40.935          39.957          40.935
  9110           8.998           1.453          18.232           7.067          40.980          40.002          40.980
  9120           8.998           1.453          18.232           7.075          41.025          40.047          41.025
  9130           8.998           1.453          18.232           7.083          41.069          40.092          41.070
  9140           8.998           1.453          18.232           7.090          41.114          40.137          41.115
  9150           8.998           1.453          18.232           7.098          41.159          40.182          41.160
  9160           8.998           1.453          18.232           7.106          41.204          40.227          41.205
  9170           8.998           1.453          18.232           7.114          41.249          40.272          41.250
  9180           8.998           1.453          18.232           7.121          41.294          40.317          41.295
  9190           8.998           1.453          18.232           7.129          41.339          40.362          41.340
  9200           8.998           1.453          18.232           7.137          41.384          40.407          41.385
  9210           8.998           1.453          18.232           7.145          41.429          40.452          41.430
  9220           8.998           1.453          18.232           7.152          41.474          40.497          41.475
  9230           8.998           1.453          18.232           7.160          41.519          40.542          41.519
  9240           8.998           1.453          18.232           7.168          41.564          40.587          41.564
  9250           8.998           1.453          18.232           7.176          41.609          40.632          41.609
  9260           8.998           1.453          18.232           7.183          41.654          40.676          41.654
  9270           8.998           1.453          18.232           7.191          41.699          40.721          41.699
  9280           8.998           1.453          18.232           7.199          41.744          40.766          41.744
  9290           8.998           1.453          18.232           7.207          41.789          40.811          41.789
  9300           8.998           1.453          18.232           7.214          41.834          40.856          41.834
  9310           8.998           1.453          18.232           7.222          41.879          40.901          41.879
  9320           8.998           1.453          18.232           7.230          41.924          40.946          41.924
  9330           8.998           1.453          18.232           7.238          41.969          40.991          41.969
  9340           8.998           1.453          18.232           7.245          42.014          41.036          42.014
  9350           8.998           1.453          18.232           7.253          42.059          41.081          42.059
  9360           8.998           1.453          18.232           7.261          42.104          41.126          42.104
  9370           8.998           1.453          18.232           7.269          42.149          41.171          42.149
  9380           8.998           1.453          18.232           7.276          42.194          41.216          42.194
  9390           8.998           1.453          18.232           7.284          42.239          41.261          42.239
  9400           8.998           1.453          18.232           7.292          42.283          41.306          42.284
  9410           8.998           1.453          18.232           7.300          42.328          41.351          42.329
  9420           8.998           1.453          18.232           7.307          42.373          41.396          42.374
  9430           8.998           1.453          18.232           7.315          42.418          41.441          42.419
  9440           8.998           1.453          18.232           7.323          42.463          41.486          42.464
  9450           8.998           1.453          18.232           7.331          42.508          41.531          42.509
  9460           8.998           1.453          18.232           7.338          42.553          41.576          42.554
  9470           8.998           1.453          18.232           7.346          42.598          41.621          42.599
  9480           8.998           1.453          18.232           7.354          42.643          41.666          42.644
  9490           8.998           1.453          18.232           7.362          42.688          41.711          42.688
  9500           8.998           1.453          18.232           7.369          42.733          41.756          42.733
  9510           8.998           1.453          18.232           7.377          42.778          41.801          42.778
  9520           8.998           1.453          18.232           7.385          42.823          41.845          42.823
  9530           8.998           1.453          18.232           7.393          42.868          41.890          42.868
  9540           8.998           1.453          18.232           7.400          42.913          41.935          42.913
  9550           8.998           1.453          18.232           7.408          42.958          41.980          42.958
  9560           8.998           1.453          18.232           7.416          43.003          42.025          43.003
  9570           8.998           1.453          18.232           7.424          43.048          42.070          43.048
  9580           8.998           1.453          18.232           7.431          43.093          42.115          43.093
  9590           8.998           1.453          18.232           7.439          43.138          42.160          43.138
  9600           8.998           1.453          18.232           7.447          43.183          42.205          43.183
  9610           8.998           1.453          18.232           7.455          43.228          42.250          43.228
  9620           8.998           1.453          18.232           7.463          43.273          42.295          43.273
  9630           8.998           1.453          18.232           7.470          43.318          42.340          43.318
  9640           8.998           1.453          18.232           7.478          43.363          42.385          43.363
  9650           8.998           1.453          18.232           7.486          43.408          42.430          43.408
  9660           8.998           1.453          18.232           7.494          43.452          42.475          43.453
  9670           8.998           1.453          18.232           7.501          43.497          42.520          43.498
  9680           8.998           1.453          18.232           7.509          43.542          42.565          43.543
  9690           8.998           1.453          18.232           7.517          43.587          42.610          43.588
  9700           8.998           1.453          18.232           7.525          43.632          42.655          43.633
  9710           8.998           1.453          18.232           7.532          43.677          42.700          43.678
  9720           8.998           1.453          18.232           7.540          43.722          42.745          43.723
  9730           8.998           1.453          18.232           7.548          43.767          42.790          43.768
  9740           8.998           1.453          18.232           7.556          43.812          42.835          43.813
  9750           8.998           1.453          18.232           7.563          43.857          42.880          43.858
  9760           8.998           1.453          18.232           7.571          43.902          42.925          43.902
  9770           8.998           1.453          18.232           7.579          43.947          42.970          43.947
  9780           8.998           1.453          18.232           7.587          43.992          43.015          43.992
  9790           8.998           1.453          18.232           7.594          44.037          43.059          44.037
  9800           8.998           1.453          18.232           7.602          44.082          43.104          44.082
  9810           8.998           1.453          18.232           7.610          44.127          43.149          44.127
  9820           8.998           1.453          18.232           7.618          44.172          43.194          44.172
  9830           8.998           1.453          18.232           7.625          44.217          43.239          44.217
  9840           8.998           1.453          18.232           7.633          44.262          43.284          44.262
  9850           8.998           1.453          18.232           7.641          44.307          43.329          44.307
  9860           8.998           1.453          18.232           7.649          44.352          43.374          44.352
  9870           8.998           1.453          18.232           7.656          44.397          43.419          44.397
  9880           8.998           1.453          18.232           7.664          44.442          43.464          44.442
  9890           8.998           1.453          18.232           7.672          44.487          43.509          44.487
  9900           8.998           1.453          18.232           7.680          44.532          43.554          44.532
  9910           8.998           1.453          18.232           7.687          44.577          43.599          44.577
  9920           8.998           1.453          18.232           7.695          44.622          43.644          44.622
  9930           8.998           1.453          18.232           7.703          44.667          43.689          44.667
  9940           8.998           1.453          18.232           7.711          44.711          43.734          44.712
  9950           8.998           1.453          18.232           7.718          44.756          43.779          44.757
  9960           8.998           1.453          18.232           7.726          44.801          43.824          44.802
  9970           8.998           1.453          18.232           7.734          44.846          43.869          44.847
  9980           8.998           1.453          18.232           7.742          44.891          43.912          44.892
  9990           8.998           1.453          18.232           7.749          44.936          43.964          44.937
 10000           8.998           1.453          18.232           7.757          44.981          43.981          44.982
