#   T(K)    C_v(k_B/fu)        Gamma     alpha_v*10^6(K^-1)   E_th(eV)                       P_th(GPa)
#                                                                         ----------------------------------------------
#                                                                          {sum G_i.U_iV}  {int G.C_v/V dT}    {G.U/V}
# ----------------------------------------------------------------------------------------------------------------------
    10           0.009           0.492           0.006           0.159           0.659           0.000           0.312
    20           0.158           0.658           0.149           0.159           0.659           0.000           0.417
    30           0.511           0.742           0.541           0.159           0.660           0.002           0.471
    40           0.950           0.789           1.070           0.160           0.662           0.004           0.503
    50           1.400           0.831           1.659           0.161           0.665           0.008           0.533
    60           1.839           0.870           2.282           0.162           0.670           0.014           0.563
    70           2.266           0.904           2.923           0.164           0.676           0.021           0.591
    80           2.681           0.933           3.568           0.166           0.684           0.029           0.618
    90           3.084           0.956           4.206           0.169           0.693           0.040           0.643
   100           3.474           0.974           4.827           0.171           0.704           0.051           0.666
   110           3.847           0.988           5.421           0.174           0.717           0.064           0.688
   120           4.202           0.998           5.984           0.178           0.730           0.079           0.709
   130           4.536           1.006           6.512           0.182           0.745           0.094           0.729
   140           4.849           1.012           7.002           0.186           0.762           0.111           0.750
   150           5.141           1.017           7.456           0.190           0.779           0.129           0.771
   160           5.410           1.020           7.874           0.195           0.798           0.148           0.792
   170           5.659           1.023           8.257           0.199           0.817           0.168           0.814
   180           5.888           1.025           8.609           0.204           0.837           0.189           0.836
   190           6.099           1.026           8.930           0.210           0.858           0.210           0.858
   200           6.292           1.027           9.224           0.215           0.880           0.233           0.881
   210           6.470           1.028           9.492           0.220           0.903           0.255           0.904
   220           6.632           1.029           9.738           0.226           0.926           0.279           0.928
   230           6.782           1.030           9.962           0.232           0.950           0.303           0.952
   240           6.919           1.030          10.168           0.238           0.974           0.327           0.977
   250           7.045           1.030          10.357           0.244           0.999           0.352           1.002
   260           7.161           1.030          10.530           0.250           1.024           0.378           1.027
   270           7.268           1.031          10.689           0.256           1.050           0.403           1.053
   280           7.367           1.031          10.835           0.262           1.075           0.430           1.079
   290           7.458           1.031          10.970           0.269           1.102           0.456           1.106
   300           7.542           1.031          11.095           0.275           1.128           0.483           1.132
   310           7.620           1.031          11.210           0.282           1.155           0.510           1.159
   320           7.692           1.031          11.316           0.288           1.182           0.537           1.186
   330           7.759           1.031          11.415           0.295           1.210           0.565           1.214
   340           7.821           1.031          11.506           0.302           1.237           0.592           1.241
   350           7.879           1.031          11.591           0.308           1.265           0.620           1.269
   360           7.933           1.031          11.671           0.315           1.293           0.648           1.297
   370           7.983           1.031          11.744           0.322           1.321           0.677           1.325
   380           8.030           1.031          11.813           0.329           1.350           0.705           1.354
   390           8.074           1.031          11.878           0.336           1.378           0.734           1.382
   400           8.115           1.031          11.938           0.343           1.407           0.762           1.411
   410           8.153           1.031          11.994           0.350           1.436           0.791           1.440
   420           8.189           1.031          12.047           0.357           1.465           0.820           1.469
   430           8.223           1.031          12.097           0.364           1.494           0.850           1.498
   440           8.255           1.031          12.143           0.371           1.523           0.879           1.527
   450           8.285           1.031          12.187           0.378           1.552           0.908           1.556
   460           8.314           1.031          12.228           0.385           1.582           0.938           1.586
   470           8.340           1.031          12.267           0.393           1.611           0.967           1.615
   480           8.366           1.031          12.304           0.400           1.641           0.997           1.645
   490           8.389           1.031          12.339           0.407           1.671           1.027           1.674
   500           8.412           1.031          12.372           0.414           1.700           1.056           1.704
   510           8.433           1.031          12.403           0.422           1.730           1.086           1.734
   520           8.454           1.031          12.432           0.429           1.760           1.116           1.764
   530           8.473           1.031          12.460           0.436           1.790           1.146           1.794
   540           8.491           1.031          12.487           0.443           1.820           1.176           1.824
   550           8.508           1.031          12.512           0.451           1.850           1.207           1.854
   560           8.525           1.031          12.536           0.458           1.881           1.237           1.884
   570           8.540           1.031          12.559           0.465           1.911           1.267           1.914
   580           8.555           1.031          12.580           0.473           1.941           1.297           1.944
   590           8.570           1.031          12.601           0.480           1.971           1.328           1.975
   600           8.583           1.031          12.621           0.488           2.002           1.358           2.005
   610           8.596           1.030          12.639           0.495           2.032           1.389           2.035
   620           8.608           1.030          12.657           0.502           2.063           1.419           2.066
   630           8.620           1.030          12.674           0.510           2.093           1.450           2.096
   640           8.631           1.030          12.691           0.517           2.124           1.480           2.127
   650           8.642           1.030          12.706           0.525           2.154           1.511           2.157
   660           8.653           1.030          12.721           0.532           2.185           1.541           2.188
   670           8.662           1.030          12.736           0.540           2.216           1.572           2.219
   680           8.672           1.030          12.749           0.547           2.246           1.603           2.249
   690           8.681           1.030          12.763           0.555           2.277           1.634           2.280
   700           8.690           1.030          12.775           0.562           2.308           1.664           2.311
   710           8.698           1.030          12.787           0.570           2.339           1.695           2.341
   720           8.706           1.030          12.799           0.577           2.370           1.726           2.372
   730           8.714           1.030          12.810           0.585           2.400           1.757           2.403
   740           8.721           1.030          12.821           0.592           2.431           1.788           2.434
   750           8.729           1.030          12.831           0.600           2.462           1.819           2.465
   760           8.735           1.030          12.841           0.607           2.493           1.850           2.496
   770           8.742           1.030          12.851           0.615           2.524           1.881           2.527
   780           8.748           1.030          12.860           0.622           2.555           1.912           2.558
   790           8.755           1.030          12.869           0.630           2.586           1.943           2.589
   800           8.761           1.030          12.878           0.637           2.617           1.974           2.620
   810           8.766           1.030          12.886           0.645           2.648           2.005           2.651
   820           8.772           1.030          12.894           0.652           2.679           2.036           2.682
   830           8.777           1.030          12.902           0.660           2.710           2.067           2.713
   840           8.782           1.030          12.909           0.668           2.741           2.098           2.744
   850           8.787           1.030          12.916           0.675           2.773           2.129           2.775
   860           8.792           1.030          12.923           0.683           2.804           2.160           2.806
   870           8.797           1.030          12.930           0.690           2.835           2.191           2.837
   880           8.801           1.030          12.937           0.698           2.866           2.223           2.868
   890           8.805           1.030          12.943           0.705           2.897           2.254           2.899
   900           8.810           1.030          12.949           0.713           2.928           2.285           2.931
   910           8.814           1.030          12.955           0.721           2.960           2.316           2.962
   920           8.818           1.030          12.961           0.728           2.991           2.347           2.993
   930           8.822           1.030          12.966           0.736           3.022           2.379           3.024
   940           8.825           1.030          12.971           0.743           3.053           2.410           3.055
   950           8.829           1.030          12.977           0.751           3.085           2.441           3.087
   960           8.832           1.030          12.982           0.759           3.116           2.473           3.118
   970           8.836           1.030          12.986           0.766           3.147           2.504           3.149
   980           8.839           1.030          12.991           0.774           3.178           2.535           3.180
   990           8.842           1.030          12.996           0.781           3.210           2.566           3.212
  1000           8.845           1.030          13.000           0.789           3.241           2.598           3.243
  1010           8.848           1.030          13.005           0.797           3.272           2.629           3.274
  1020           8.851           1.030          13.009           0.804           3.304           2.660           3.306
  1030           8.854           1.030          13.013           0.812           3.335           2.692           3.337
  1040           8.857           1.030          13.017           0.820           3.366           2.723           3.368
  1050           8.859           1.030          13.021           0.827           3.398           2.755           3.400
  1060           8.862           1.030          13.025           0.835           3.429           2.786           3.431
  1070           8.864           1.030          13.028           0.842           3.461           2.817           3.462
  1080           8.867           1.030          13.032           0.850           3.492           2.849           3.494
  1090           8.869           1.030          13.035           0.858           3.523           2.880           3.525
  1100           8.872           1.030          13.039           0.865           3.555           2.912           3.557
  1110           8.874           1.030          13.042           0.873           3.586           2.943           3.588
  1120           8.876           1.030          13.045           0.881           3.618           2.974           3.619
  1130           8.878           1.030          13.048           0.888           3.649           3.006           3.651
  1140           8.880           1.030          13.051           0.896           3.681           3.037           3.682
  1150           8.882           1.030          13.054           0.904           3.712           3.069           3.714
  1160           8.884           1.030          13.057           0.911           3.743           3.100           3.745
  1170           8.886           1.030          13.060           0.919           3.775           3.132           3.777
  1180           8.888           1.030          13.063           0.927           3.806           3.163           3.808
  1190           8.890           1.030          13.065           0.934           3.838           3.195           3.840
  1200           8.892           1.030          13.068           0.942           3.869           3.226           3.871
  1210           8.894           1.030          13.070           0.950           3.901           3.258           3.903
  1220           8.895           1.030          13.073           0.957           3.932           3.289           3.934
  1230           8.897           1.030          13.075           0.965           3.964           3.321           3.966
  1240           8.899           1.030          13.078           0.973           3.995           3.352           3.997
  1250           8.900           1.030          13.080           0.980           4.027           3.384           4.029
  1260           8.902           1.030          13.082           0.988           4.058           3.415           4.060
  1270           8.903           1.030          13.084           0.996           4.090           3.447           4.092
  1280           8.905           1.030          13.087           1.003           4.121           3.478           4.123
  1290           8.906           1.030          13.089           1.011           4.153           3.510           4.155
  1300           8.908           1.030          13.091           1.019           4.185           3.541           4.186
  1310           8.909           1.030          13.093           1.026           4.216           3.573           4.218
  1320           8.910           1.030          13.095           1.034           4.248           3.604           4.249
  1330           8.912           1.030          13.097           1.042           4.279           3.636           4.281
  1340           8.913           1.030          13.098           1.049           4.311           3.668           4.312
  1350           8.914           1.030          13.100           1.057           4.342           3.699           4.344
  1360           8.916           1.030          13.102           1.065           4.374           3.731           4.375
  1370           8.917           1.030          13.104           1.072           4.405           3.762           4.407
  1380           8.918           1.030          13.106           1.080           4.437           3.794           4.439
  1390           8.919           1.030          13.107           1.088           4.469           3.825           4.470
  1400           8.920           1.030          13.109           1.095           4.500           3.857           4.502
  1410           8.921           1.030          13.110           1.103           4.532           3.889           4.533
  1420           8.923           1.030          13.112           1.111           4.563           3.920           4.565
  1430           8.924           1.030          13.114           1.119           4.595           3.952           4.596
  1440           8.925           1.030          13.115           1.126           4.627           3.983           4.628
  1450           8.926           1.030          13.117           1.134           4.658           4.015           4.660
  1460           8.927           1.030          13.118           1.142           4.690           4.047           4.691
  1470           8.928           1.030          13.119           1.149           4.721           4.078           4.723
  1480           8.929           1.030          13.121           1.157           4.753           4.110           4.754
  1490           8.930           1.030          13.122           1.165           4.785           4.142           4.786
  1500           8.931           1.030          13.124           1.172           4.816           4.173           4.818
  1510           8.931           1.030          13.125           1.180           4.848           4.205           4.849
  1520           8.932           1.030          13.126           1.188           4.880           4.236           4.881
  1530           8.933           1.030          13.127           1.195           4.911           4.268           4.913
  1540           8.934           1.030          13.129           1.203           4.943           4.300           4.944
  1550           8.935           1.030          13.130           1.211           4.974           4.331           4.976
  1560           8.936           1.030          13.131           1.219           5.006           4.363           5.007
  1570           8.937           1.030          13.132           1.226           5.038           4.395           5.039
  1580           8.937           1.030          13.133           1.234           5.069           4.426           5.071
  1590           8.938           1.030          13.135           1.242           5.101           4.458           5.102
  1600           8.939           1.030          13.136           1.249           5.133           4.490           5.134
  1610           8.940           1.030          13.137           1.257           5.164           4.521           5.166
  1620           8.940           1.030          13.138           1.265           5.196           4.553           5.197
  1630           8.941           1.030          13.139           1.272           5.228           4.585           5.229
  1640           8.942           1.030          13.140           1.280           5.259           4.616           5.261
  1650           8.943           1.030          13.141           1.288           5.291           4.648           5.292
  1660           8.943           1.030          13.142           1.296           5.323           4.680           5.324
  1670           8.944           1.030          13.143           1.303           5.354           4.711           5.356
  1680           8.945           1.030          13.144           1.311           5.386           4.743           5.387
  1690           8.945           1.030          13.145           1.319           5.418           4.775           5.419
  1700           8.946           1.030          13.146           1.326           5.449           4.806           5.451
  1710           8.946           1.030          13.147           1.334           5.481           4.838           5.482
  1720           8.947           1.030          13.147           1.342           5.513           4.870           5.514
  1730           8.948           1.030          13.148           1.350           5.544           4.901           5.546
  1740           8.948           1.030          13.149           1.357           5.576           4.933           5.577
  1750           8.949           1.030          13.150           1.365           5.608           4.965           5.609
  1760           8.949           1.030          13.151           1.373           5.639           4.996           5.641
  1770           8.950           1.030          13.152           1.380           5.671           5.028           5.672
  1780           8.951           1.030          13.152           1.388           5.703           5.060           5.704
  1790           8.951           1.030          13.153           1.396           5.735           5.091           5.736
  1800           8.952           1.030          13.154           1.404           5.766           5.123           5.767
  1810           8.952           1.030          13.155           1.411           5.798           5.155           5.799
  1820           8.953           1.030          13.156           1.419           5.830           5.187           5.831
  1830           8.953           1.030          13.156           1.427           5.861           5.218           5.862
  1840           8.954           1.030          13.157           1.434           5.893           5.250           5.894
  1850           8.954           1.030          13.158           1.442           5.925           5.282           5.926
  1860           8.955           1.030          13.158           1.450           5.956           5.313           5.958
  1870           8.955           1.030          13.159           1.458           5.988           5.345           5.989
  1880           8.956           1.030          13.160           1.465           6.020           5.377           6.021
  1890           8.956           1.030          13.160           1.473           6.052           5.408           6.053
  1900           8.957           1.030          13.161           1.481           6.083           5.440           6.084
  1910           8.957           1.030          13.162           1.488           6.115           5.472           6.116
  1920           8.957           1.030          13.162           1.496           6.147           5.504           6.148
  1930           8.958           1.030          13.163           1.504           6.178           5.535           6.180
  1940           8.958           1.030          13.164           1.512           6.210           5.567           6.211
  1950           8.959           1.030          13.164           1.519           6.242           5.599           6.243
  1960           8.959           1.030          13.165           1.527           6.274           5.631           6.275
  1970           8.960           1.030          13.165           1.535           6.305           5.662           6.306
  1980           8.960           1.030          13.166           1.542           6.337           5.694           6.338
  1990           8.960           1.030          13.167           1.550           6.369           5.726           6.370
  2000           8.961           1.030          13.167           1.558           6.401           5.757           6.402
  2010           8.961           1.030          13.168           1.566           6.432           5.789           6.433
  2020           8.962           1.030          13.168           1.573           6.464           5.821           6.465
  2030           8.962           1.030          13.169           1.581           6.496           5.853           6.497
  2040           8.962           1.030          13.169           1.589           6.527           5.884           6.528
  2050           8.963           1.030          13.170           1.597           6.559           5.916           6.560
  2060           8.963           1.030          13.170           1.604           6.591           5.948           6.592
  2070           8.963           1.030          13.171           1.612           6.623           5.980           6.624
  2080           8.964           1.030          13.171           1.620           6.654           6.011           6.655
  2090           8.964           1.030          13.172           1.627           6.686           6.043           6.687
  2100           8.964           1.030          13.172           1.635           6.718           6.075           6.719
  2110           8.965           1.030          13.173           1.643           6.750           6.107           6.751
  2120           8.965           1.030          13.173           1.651           6.781           6.138           6.782
  2130           8.965           1.030          13.174           1.658           6.813           6.170           6.814
  2140           8.966           1.030          13.174           1.666           6.845           6.202           6.846
  2150           8.966           1.030          13.175           1.674           6.877           6.234           6.878
  2160           8.966           1.030          13.175           1.681           6.908           6.265           6.909
  2170           8.967           1.030          13.176           1.689           6.940           6.297           6.941
  2180           8.967           1.030          13.176           1.697           6.972           6.329           6.973
  2190           8.967           1.030          13.177           1.705           7.004           6.361           7.005
  2200           8.968           1.030          13.177           1.712           7.035           6.392           7.036
  2210           8.968           1.030          13.177           1.720           7.067           6.424           7.068
  2220           8.968           1.030          13.178           1.728           7.099           6.456           7.100
  2230           8.968           1.030          13.178           1.736           7.131           6.488           7.132
  2240           8.969           1.030          13.179           1.743           7.162           6.519           7.163
  2250           8.969           1.030          13.179           1.751           7.194           6.551           7.195
  2260           8.969           1.030          13.179           1.759           7.226           6.583           7.227
  2270           8.970           1.030          13.180           1.766           7.258           6.615           7.259
  2280           8.970           1.030          13.180           1.774           7.289           6.646           7.290
  2290           8.970           1.030          13.181           1.782           7.321           6.678           7.322
  2300           8.970           1.030          13.181           1.790           7.353           6.710           7.354
  2310           8.971           1.030          13.181           1.797           7.385           6.742           7.386
  2320           8.971           1.030          13.182           1.805           7.416           6.773           7.417
  2330           8.971           1.030          13.182           1.813           7.448           6.805           7.449
  2340           8.971           1.030          13.182           1.821           7.480           6.837           7.481
  2350           8.972           1.030          13.183           1.828           7.512           6.869           7.513
  2360           8.972           1.030          13.183           1.836           7.544           6.900           7.544
  2370           8.972           1.030          13.183           1.844           7.575           6.932           7.576
  2380           8.972           1.030          13.184           1.852           7.607           6.964           7.608
  2390           8.973           1.030          13.184           1.859           7.639           6.996           7.640
  2400           8.973           1.030          13.184           1.867           7.671           7.028           7.671
  2410           8.973           1.030          13.185           1.875           7.702           7.059           7.703
  2420           8.973           1.030          13.185           1.882           7.734           7.091           7.735
  2430           8.973           1.030          13.185           1.890           7.766           7.123           7.767
  2440           8.974           1.030          13.186           1.898           7.798           7.155           7.799
  2450           8.974           1.030          13.186           1.906           7.829           7.186           7.830
  2460           8.974           1.030          13.186           1.913           7.861           7.218           7.862
  2470           8.974           1.030          13.187           1.921           7.893           7.250           7.894
  2480           8.974           1.030          13.187           1.929           7.925           7.282           7.926
  2490           8.975           1.030          13.187           1.937           7.957           7.314           7.957
  2500           8.975           1.030          13.188           1.944           7.988           7.345           7.989
  2510           8.975           1.030          13.188           1.952           8.020           7.377           8.021
  2520           8.975           1.030          13.188           1.960           8.052           7.409           8.053
  2530           8.975           1.030          13.188           1.968           8.084           7.441           8.085
  2540           8.976           1.030          13.189           1.975           8.115           7.472           8.116
  2550           8.976           1.030          13.189           1.983           8.147           7.504           8.148
  2560           8.976           1.030          13.189           1.991           8.179           7.536           8.180
  2570           8.976           1.030          13.189           1.998           8.211           7.568           8.212
  2580           8.976           1.030          13.190           2.006           8.243           7.600           8.243
  2590           8.977           1.030          13.190           2.014           8.274           7.631           8.275
  2600           8.977           1.030          13.190           2.022           8.306           7.663           8.307
  2610           8.977           1.030          13.191           2.029           8.338           7.695           8.339
  2620           8.977           1.030          13.191           2.037           8.370           7.727           8.371
  2630           8.977           1.030          13.191           2.045           8.402           7.758           8.402
  2640           8.977           1.030          13.191           2.053           8.433           7.790           8.434
  2650           8.978           1.030          13.192           2.060           8.465           7.822           8.466
  2660           8.978           1.030          13.192           2.068           8.497           7.854           8.498
  2670           8.978           1.030          13.192           2.076           8.529           7.886           8.529
  2680           8.978           1.030          13.192           2.084           8.560           7.917           8.561
  2690           8.978           1.030          13.192           2.091           8.592           7.949           8.593
  2700           8.978           1.030          13.193           2.099           8.624           7.981           8.625
  2710           8.979           1.030          13.193           2.107           8.656           8.013           8.657
  2720           8.979           1.030          13.193           2.115           8.688           8.045           8.688
  2730           8.979           1.030          13.193           2.122           8.719           8.076           8.720
  2740           8.979           1.030          13.194           2.130           8.751           8.108           8.752
  2750           8.979           1.030          13.194           2.138           8.783           8.140           8.784
  2760           8.979           1.030          13.194           2.145           8.815           8.172           8.816
  2770           8.980           1.030          13.194           2.153           8.847           8.204           8.847
  2780           8.980           1.030          13.194           2.161           8.878           8.235           8.879
  2790           8.980           1.030          13.195           2.169           8.910           8.267           8.911
  2800           8.980           1.030          13.195           2.176           8.942           8.299           8.943
  2810           8.980           1.030          13.195           2.184           8.974           8.331           8.975
  2820           8.980           1.030          13.195           2.192           9.006           8.363           9.006
  2830           8.980           1.030          13.195           2.200           9.037           8.394           9.038
  2840           8.981           1.030          13.196           2.207           9.069           8.426           9.070
  2850           8.981           1.030          13.196           2.215           9.101           8.458           9.102
  2860           8.981           1.030          13.196           2.223           9.133           8.490           9.134
  2870           8.981           1.030          13.196           2.231           9.165           8.522           9.165
  2880           8.981           1.030          13.196           2.238           9.196           8.553           9.197
  2890           8.981           1.030          13.197           2.246           9.228           8.585           9.229
  2900           8.981           1.030          13.197           2.254           9.260           8.617           9.261
  2910           8.981           1.030          13.197           2.262           9.292           8.649           9.292
  2920           8.982           1.030          13.197           2.269           9.324           8.681           9.324
  2930           8.982           1.030          13.197           2.277           9.355           8.712           9.356
  2940           8.982           1.030          13.198           2.285           9.387           8.744           9.388
  2950           8.982           1.030          13.198           2.293           9.419           8.776           9.420
  2960           8.982           1.030          13.198           2.300           9.451           8.808           9.451
  2970           8.982           1.030          13.198           2.308           9.483           8.840           9.483
  2980           8.982           1.030          13.198           2.316           9.514           8.871           9.515
  2990           8.982           1.030          13.198           2.323           9.546           8.903           9.547
  3000           8.983           1.030          13.199           2.331           9.578           8.935           9.579
  3010           8.983           1.030          13.199           2.339           9.610           8.967           9.611
  3020           8.983           1.030          13.199           2.347           9.642           8.999           9.642
  3030           8.983           1.030          13.199           2.354           9.673           9.030           9.674
  3040           8.983           1.030          13.199           2.362           9.705           9.062           9.706
  3050           8.983           1.030          13.199           2.370           9.737           9.094           9.738
  3060           8.983           1.030          13.200           2.378           9.769           9.126           9.770
  3070           8.983           1.030          13.200           2.385           9.801           9.158           9.801
  3080           8.983           1.030          13.200           2.393           9.832           9.189           9.833
  3090           8.984           1.030          13.200           2.401           9.864           9.221           9.865
  3100           8.984           1.030          13.200           2.409           9.896           9.253           9.897
  3110           8.984           1.030          13.200           2.416           9.928           9.285           9.929
  3120           8.984           1.030          13.200           2.424           9.960           9.317           9.960
  3130           8.984           1.030          13.201           2.432           9.992           9.348           9.992
  3140           8.984           1.030          13.201           2.440          10.023           9.380          10.024
  3150           8.984           1.030          13.201           2.447          10.055           9.412          10.056
  3160           8.984           1.030          13.201           2.455          10.087           9.444          10.088
  3170           8.984           1.030          13.201           2.463          10.119           9.476          10.119
  3180           8.984           1.030          13.201           2.471          10.151           9.508          10.151
  3190           8.985           1.030          13.202           2.478          10.182           9.539          10.183
  3200           8.985           1.030          13.202           2.486          10.214           9.571          10.215
  3210           8.985           1.030          13.202           2.494          10.246           9.603          10.247
  3220           8.985           1.030          13.202           2.502          10.278           9.635          10.278
  3230           8.985           1.030          13.202           2.509          10.310           9.667          10.310
  3240           8.985           1.030          13.202           2.517          10.341           9.698          10.342
  3250           8.985           1.030          13.202           2.525          10.373           9.730          10.374
  3260           8.985           1.030          13.202           2.532          10.405           9.762          10.406
  3270           8.985           1.030          13.203           2.540          10.437           9.794          10.438
  3280           8.985           1.030          13.203           2.548          10.469           9.826          10.469
  3290           8.985           1.030          13.203           2.556          10.501           9.857          10.501
  3300           8.986           1.030          13.203           2.563          10.532           9.889          10.533
  3310           8.986           1.030          13.203           2.571          10.564           9.921          10.565
  3320           8.986           1.030          13.203           2.579          10.596           9.953          10.597
  3330           8.986           1.030          13.203           2.587          10.628           9.985          10.628
  3340           8.986           1.030          13.203           2.594          10.660          10.017          10.660
  3350           8.986           1.030          13.204           2.602          10.691          10.048          10.692
  3360           8.986           1.030          13.204           2.610          10.723          10.080          10.724
  3370           8.986           1.030          13.204           2.618          10.755          10.112          10.756
  3380           8.986           1.030          13.204           2.625          10.787          10.144          10.787
  3390           8.986           1.030          13.204           2.633          10.819          10.176          10.819
  3400           8.986           1.030          13.204           2.641          10.851          10.207          10.851
  3410           8.986           1.030          13.204           2.649          10.882          10.239          10.883
  3420           8.987           1.030          13.204           2.656          10.914          10.271          10.915
  3430           8.987           1.030          13.205           2.664          10.946          10.303          10.947
  3440           8.987           1.030          13.205           2.672          10.978          10.335          10.978
  3450           8.987           1.030          13.205           2.680          11.010          10.367          11.010
  3460           8.987           1.030          13.205           2.687          11.041          10.398          11.042
  3470           8.987           1.030          13.205           2.695          11.073          10.430          11.074
  3480           8.987           1.030          13.205           2.703          11.105          10.462          11.106
  3490           8.987           1.030          13.205           2.711          11.137          10.494          11.137
  3500           8.987           1.030          13.205           2.718          11.169          10.526          11.169
  3510           8.987           1.030          13.205           2.726          11.201          10.557          11.201
  3520           8.987           1.030          13.205           2.734          11.232          10.589          11.233
  3530           8.987           1.030          13.206           2.742          11.264          10.621          11.265
  3540           8.987           1.030          13.206           2.749          11.296          10.653          11.297
  3550           8.988           1.030          13.206           2.757          11.328          10.685          11.328
  3560           8.988           1.030          13.206           2.765          11.360          10.717          11.360
  3570           8.988           1.030          13.206           2.773          11.391          10.748          11.392
  3580           8.988           1.030          13.206           2.780          11.423          10.780          11.424
  3590           8.988           1.030          13.206           2.788          11.455          10.812          11.456
  3600           8.988           1.030          13.206           2.796          11.487          10.844          11.488
  3610           8.988           1.030          13.206           2.804          11.519          10.876          11.519
  3620           8.988           1.030          13.206           2.811          11.551          10.908          11.551
  3630           8.988           1.030          13.207           2.819          11.582          10.939          11.583
  3640           8.988           1.030          13.207           2.827          11.614          10.971          11.615
  3650           8.988           1.030          13.207           2.835          11.646          11.003          11.647
  3660           8.988           1.030          13.207           2.842          11.678          11.035          11.678
  3670           8.988           1.030          13.207           2.850          11.710          11.067          11.710
  3680           8.988           1.030          13.207           2.858          11.742          11.098          11.742
  3690           8.988           1.030          13.207           2.865          11.773          11.130          11.774
  3700           8.989           1.030          13.207           2.873          11.805          11.162          11.806
  3710           8.989           1.030          13.207           2.881          11.837          11.194          11.838
  3720           8.989           1.030          13.207           2.889          11.869          11.226          11.869
  3730           8.989           1.030          13.207           2.896          11.901          11.258          11.901
  3740           8.989           1.030          13.208           2.904          11.932          11.289          11.933
  3750           8.989           1.030          13.208           2.912          11.964          11.321          11.965
  3760           8.989           1.030          13.208           2.920          11.996          11.353          11.997
  3770           8.989           1.030          13.208           2.927          12.028          11.385          12.029
  3780           8.989           1.030          13.208           2.935          12.060          11.417          12.060
  3790           8.989           1.030          13.208           2.943          12.092          11.449          12.092
  3800           8.989           1.030          13.208           2.951          12.123          11.480          12.124
  3810           8.989           1.030          13.208           2.958          12.155          11.512          12.156
  3820           8.989           1.030          13.208           2.966          12.187          11.544          12.188
  3830           8.989           1.030          13.208           2.974          12.219          11.576          12.219
  3840           8.989           1.030          13.208           2.982          12.251          11.608          12.251
  3850           8.989           1.030          13.208           2.989          12.283          11.640          12.283
  3860           8.989           1.030          13.209           2.997          12.314          11.671          12.315
  3870           8.989           1.030          13.209           3.005          12.346          11.703          12.347
  3880           8.990           1.030          13.209           3.013          12.378          11.735          12.379
  3890           8.990           1.030          13.209           3.020          12.410          11.767          12.410
  3900           8.990           1.030          13.209           3.028          12.442          11.799          12.442
  3910           8.990           1.030          13.209           3.036          12.474          11.831          12.474
  3920           8.990           1.030          13.209           3.044          12.505          11.862          12.506
  3930           8.990           1.030          13.209           3.051          12.537          11.894          12.538
  3940           8.990           1.030          13.209           3.059          12.569          11.926          12.570
  3950           8.990           1.030          13.209           3.067          12.601          11.958          12.601
  3960           8.990           1.030          13.209           3.075          12.633          11.990          12.633
  3970           8.990           1.030          13.209           3.082          12.665          12.022          12.665
  3980           8.990           1.030          13.209           3.090          12.696          12.053          12.697
  3990           8.990           1.030          13.210           3.098          12.728          12.085          12.729
  4000           8.990           1.030          13.210           3.106          12.760          12.117          12.761
  4010           8.990           1.030          13.210           3.113          12.792          12.149          12.792
  4020           8.990           1.030          13.210           3.121          12.824          12.181          12.824
  4030           8.990           1.030          13.210           3.129          12.856          12.212          12.856
  4040           8.990           1.030          13.210           3.137          12.887          12.244          12.888
  4050           8.990           1.030          13.210           3.144          12.919          12.276          12.920
  4060           8.990           1.030          13.210           3.152          12.951          12.308          12.952
  4070           8.990           1.030          13.210           3.160          12.983          12.340          12.983
  4080           8.991           1.030          13.210           3.168          13.015          12.372          13.015
  4090           8.991           1.030          13.210           3.175          13.047          12.403          13.047
  4100           8.991           1.030          13.210           3.183          13.078          12.435          13.079
  4110           8.991           1.030          13.210           3.191          13.110          12.467          13.111
  4120           8.991           1.030          13.210           3.199          13.142          12.499          13.143
  4130           8.991           1.030          13.210           3.206          13.174          12.531          13.174
  4140           8.991           1.030          13.211           3.214          13.206          12.563          13.206
  4150           8.991           1.030          13.211           3.222          13.238          12.594          13.238
  4160           8.991           1.030          13.211           3.230          13.269          12.626          13.270
  4170           8.991           1.030          13.211           3.237          13.301          12.658          13.302
  4180           8.991           1.030          13.211           3.245          13.333          12.690          13.334
  4190           8.991           1.030          13.211           3.253          13.365          12.722          13.365
  4200           8.991           1.030          13.211           3.261          13.397          12.754          13.397
  4210           8.991           1.030          13.211           3.268          13.429          12.786          13.429
  4220           8.991           1.030          13.211           3.276          13.460          12.817          13.461
  4230           8.991           1.030          13.211           3.284          13.492          12.849          13.493
  4240           8.991           1.030          13.211           3.292          13.524          12.881          13.525
  4250           8.991           1.030          13.211           3.299          13.556          12.913          13.556
  4260           8.991           1.030          13.211           3.307          13.588          12.945          13.588
  4270           8.991           1.030          13.211           3.315          13.620          12.977          13.620
  4280           8.991           1.030          13.211           3.323          13.651          13.008          13.652
  4290           8.991           1.030          13.211           3.330          13.683          13.040          13.684
  4300           8.991           1.030          13.212           3.338          13.715          13.072          13.716
  4310           8.992           1.030          13.212           3.346          13.747          13.104          13.747
  4320           8.992           1.030          13.212           3.354          13.779          13.136          13.779
  4330           8.992           1.030          13.212           3.361          13.811          13.168          13.811
  4340           8.992           1.030          13.212           3.369          13.842          13.199          13.843
  4350           8.992           1.030          13.212           3.377          13.874          13.231          13.875
  4360           8.992           1.030          13.212           3.385          13.906          13.263          13.907
  4370           8.992           1.030          13.212           3.392          13.938          13.295          13.938
  4380           8.992           1.030          13.212           3.400          13.970          13.327          13.970
  4390           8.992           1.030          13.212           3.408          14.002          13.359          14.002
  4400           8.992           1.030          13.212           3.416          14.033          13.390          14.034
  4410           8.992           1.030          13.212           3.423          14.065          13.422          14.066
  4420           8.992           1.030          13.212           3.431          14.097          13.454          14.098
  4430           8.992           1.030          13.212           3.439          14.129          13.486          14.129
  4440           8.992           1.030          13.212           3.447          14.161          13.518          14.161
  4450           8.992           1.030          13.212           3.454          14.193          13.550          14.193
  4460           8.992           1.030          13.212           3.462          14.224          13.581          14.225
  4470           8.992           1.030          13.212           3.470          14.256          13.613          14.257
  4480           8.992           1.030          13.212           3.478          14.288          13.645          14.289
  4490           8.992           1.030          13.213           3.485          14.320          13.677          14.320
  4500           8.992           1.030          13.213           3.493          14.352          13.709          14.352
  4510           8.992           1.030          13.213           3.501          14.384          13.741          14.384
  4520           8.992           1.030          13.213           3.509          14.415          13.772          14.416
  4530           8.992           1.030          13.213           3.516          14.447          13.804          14.448
  4540           8.992           1.030          13.213           3.524          14.479          13.836          14.480
  4550           8.992           1.030          13.213           3.532          14.511          13.868          14.511
  4560           8.992           1.030          13.213           3.540          14.543          13.900          14.543
  4570           8.992           1.030          13.213           3.547          14.575          13.932          14.575
  4580           8.992           1.030          13.213           3.555          14.607          13.963          14.607
  4590           8.993           1.030          13.213           3.563          14.638          13.995          14.639
  4600           8.993           1.030          13.213           3.571          14.670          14.027          14.671
  4610           8.993           1.030          13.213           3.578          14.702          14.059          14.703
  4620           8.993           1.030          13.213           3.586          14.734          14.091          14.734
  4630           8.993           1.030          13.213           3.594          14.766          14.123          14.766
  4640           8.993           1.030          13.213           3.602          14.798          14.155          14.798
  4650           8.993           1.030          13.213           3.609          14.829          14.186          14.830
  4660           8.993           1.030          13.213           3.617          14.861          14.218          14.862
  4670           8.993           1.030          13.213           3.625          14.893          14.250          14.894
  4680           8.993           1.030          13.213           3.633          14.925          14.282          14.925
  4690           8.993           1.030          13.213           3.640          14.957          14.314          14.957
  4700           8.993           1.030          13.214           3.648          14.989          14.346          14.989
  4710           8.993           1.030          13.214           3.656          15.020          14.377          15.021
  4720           8.993           1.030          13.214           3.664          15.052          14.409          15.053
  4730           8.993           1.030          13.214           3.671          15.084          14.441          15.085
  4740           8.993           1.030          13.214           3.679          15.116          14.473          15.116
  4750           8.993           1.030          13.214           3.687          15.148          14.505          15.148
  4760           8.993           1.030          13.214           3.695          15.180          14.537          15.180
  4770           8.993           1.030          13.214           3.702          15.212          14.568          15.212
  4780           8.993           1.030          13.214           3.710          15.243          14.600          15.244
  4790           8.993           1.030          13.214           3.718          15.275          14.632          15.276
  4800           8.993           1.030          13.214           3.726          15.307          14.664          15.307
  4810           8.993           1.030          13.214           3.733          15.339          14.696          15.339
  4820           8.993           1.030          13.214           3.741          15.371          14.728          15.371
  4830           8.993           1.030          13.214           3.749          15.403          14.760          15.403
  4840           8.993           1.030          13.214           3.757          15.434          14.791          15.435
  4850           8.993           1.030          13.214           3.764          15.466          14.823          15.467
  4860           8.993           1.030          13.214           3.772          15.498          14.855          15.499
  4870           8.993           1.030          13.214           3.780          15.530          14.887          15.530
  4880           8.993           1.030          13.214           3.788          15.562          14.919          15.562
  4890           8.993           1.030          13.214           3.795          15.594          14.951          15.594
  4900           8.993           1.030          13.214           3.803          15.625          14.982          15.626
  4910           8.993           1.030          13.214           3.811          15.657          15.014          15.658
  4920           8.993           1.030          13.214           3.819          15.689          15.046          15.690
  4930           8.994           1.030          13.214           3.826          15.721          15.078          15.721
  4940           8.994           1.030          13.214           3.834          15.753          15.110          15.753
  4950           8.994           1.030          13.215           3.842          15.785          15.142          15.785
  4960           8.994           1.030          13.215           3.850          15.817          15.173          15.817
  4970           8.994           1.030          13.215           3.857          15.848          15.205          15.849
  4980           8.994           1.030          13.215           3.865          15.880          15.237          15.881
  4990           8.994           1.030          13.215           3.873          15.912          15.269          15.912
  5000           8.994           1.030          13.215           3.881          15.944          15.301          15.944
  5010           8.994           1.030          13.215           3.888          15.976          15.333          15.976
  5020           8.994           1.030          13.215           3.896          16.008          15.365          16.008
  5030           8.994           1.030          13.215           3.904          16.039          15.396          16.040
  5040           8.994           1.030          13.215           3.912          16.071          15.428          16.072
  5050           8.994           1.030          13.215           3.919          16.103          15.460          16.104
  5060           8.994           1.030          13.215           3.927          16.135          15.492          16.135
  5070           8.994           1.030          13.215           3.935          16.167          15.524          16.167
  5080           8.994           1.030          13.215           3.943          16.199          15.556          16.199
  5090           8.994           1.030          13.215           3.950          16.230          15.587          16.231
  5100           8.994           1.030          13.215           3.958          16.262          15.619          16.263
  5110           8.994           1.030          13.215           3.966          16.294          15.651          16.295
  5120           8.994           1.030          13.215           3.974          16.326          15.683          16.326
  5130           8.994           1.030          13.215           3.981          16.358          15.715          16.358
  5140           8.994           1.030          13.215           3.989          16.390          15.747          16.390
  5150           8.994           1.030          13.215           3.997          16.422          15.779          16.422
  5160           8.994           1.030          13.215           4.005          16.453          15.810          16.454
  5170           8.994           1.030          13.215           4.012          16.485          15.842          16.486
  5180           8.994           1.030          13.215           4.020          16.517          15.874          16.518
  5190           8.994           1.030          13.215           4.028          16.549          15.906          16.549
  5200           8.994           1.030          13.215           4.036          16.581          15.938          16.581
  5210           8.994           1.030          13.215           4.043          16.613          15.970          16.613
  5220           8.994           1.030          13.215           4.051          16.644          16.001          16.645
  5230           8.994           1.030          13.215           4.059          16.676          16.033          16.677
  5240           8.994           1.030          13.216           4.067          16.708          16.065          16.709
  5250           8.994           1.030          13.216           4.074          16.740          16.097          16.740
  5260           8.994           1.030          13.216           4.082          16.772          16.129          16.772
  5270           8.994           1.030          13.216           4.090          16.804          16.161          16.804
  5280           8.994           1.030          13.216           4.098          16.836          16.193          16.836
  5290           8.994           1.030          13.216           4.105          16.867          16.224          16.868
  5300           8.994           1.030          13.216           4.113          16.899          16.256          16.900
  5310           8.994           1.030          13.216           4.121          16.931          16.288          16.931
  5320           8.994           1.030          13.216           4.129          16.963          16.320          16.963
  5330           8.994           1.030          13.216           4.136          16.995          16.352          16.995
  5340           8.994           1.030          13.216           4.144          17.027          16.384          17.027
  5350           8.994           1.030          13.216           4.152          17.058          16.415          17.059
  5360           8.995           1.030          13.216           4.160          17.090          16.447          17.091
  5370           8.995           1.030          13.216           4.167          17.122          16.479          17.123
  5380           8.995           1.030          13.216           4.175          17.154          16.511          17.154
  5390           8.995           1.030          13.216           4.183          17.186          16.543          17.186
  5400           8.995           1.030          13.216           4.191          17.218          16.575          17.218
  5410           8.995           1.030          13.216           4.198          17.250          16.607          17.250
  5420           8.995           1.030          13.216           4.206          17.281          16.638          17.282
  5430           8.995           1.030          13.216           4.214          17.313          16.670          17.314
  5440           8.995           1.030          13.216           4.222          17.345          16.702          17.345
  5450           8.995           1.030          13.216           4.229          17.377          16.734          17.377
  5460           8.995           1.030          13.216           4.237          17.409          16.766          17.409
  5470           8.995           1.030          13.216           4.245          17.441          16.798          17.441
  5480           8.995           1.030          13.216           4.253          17.473          16.829          17.473
  5490           8.995           1.030          13.216           4.260          17.504          16.861          17.505
  5500           8.995           1.030          13.216           4.268          17.536          16.893          17.537
  5510           8.995           1.030          13.216           4.276          17.568          16.925          17.568
  5520           8.995           1.030          13.216           4.284          17.600          16.957          17.600
  5530           8.995           1.030          13.216           4.291          17.632          16.989          17.632
  5540           8.995           1.030          13.216           4.299          17.664          17.021          17.664
  5550           8.995           1.030          13.216           4.307          17.695          17.052          17.696
  5560           8.995           1.030          13.216           4.315          17.727          17.084          17.728
  5570           8.995           1.030          13.216           4.322          17.759          17.116          17.760
  5580           8.995           1.030          13.216           4.330          17.791          17.148          17.791
  5590           8.995           1.030          13.217           4.338          17.823          17.180          17.823
  5600           8.995           1.030          13.217           4.346          17.855          17.212          17.855
  5610           8.995           1.030          13.217           4.353          17.887          17.243          17.887
  5620           8.995           1.030          13.217           4.361          17.918          17.275          17.919
  5630           8.995           1.030          13.217           4.369          17.950          17.307          17.951
  5640           8.995           1.030          13.217           4.377          17.982          17.339          17.982
  5650           8.995           1.030          13.217           4.384          18.014          17.371          18.014
  5660           8.995           1.030          13.217           4.392          18.046          17.403          18.046
  5670           8.995           1.030          13.217           4.400          18.078          17.435          18.078
  5680           8.995           1.030          13.217           4.408          18.109          17.466          18.110
  5690           8.995           1.030          13.217           4.415          18.141          17.498          18.142
  5700           8.995           1.030          13.217           4.423          18.173          17.530          18.174
  5710           8.995           1.030          13.217           4.431          18.205          17.562          18.205
  5720           8.995           1.030          13.217           4.439          18.237          17.594          18.237
  5730           8.995           1.030          13.217           4.446          18.269          17.626          18.269
  5740           8.995           1.030          13.217           4.454          18.301          17.658          18.301
  5750           8.995           1.030          13.217           4.462          18.332          17.689          18.333
  5760           8.995           1.030          13.217           4.470          18.364          17.721          18.365
  5770           8.995           1.030          13.217           4.477          18.396          17.753          18.396
  5780           8.995           1.030          13.217           4.485          18.428          17.785          18.428
  5790           8.995           1.030          13.217           4.493          18.460          17.817          18.460
  5800           8.995           1.030          13.217           4.501          18.492          17.849          18.492
  5810           8.995           1.030          13.217           4.508          18.524          17.880          18.524
  5820           8.995           1.030          13.217           4.516          18.555          17.912          18.556
  5830           8.995           1.030          13.217           4.524          18.587          17.944          18.588
  5840           8.995           1.030          13.217           4.532          18.619          17.976          18.619
  5850           8.995           1.030          13.217           4.539          18.651          18.008          18.651
  5860           8.995           1.030          13.217           4.547          18.683          18.040          18.683
  5870           8.995           1.030          13.217           4.555          18.715          18.072          18.715
  5880           8.995           1.030          13.217           4.563          18.746          18.103          18.747
  5890           8.995           1.030          13.217           4.570          18.778          18.135          18.779
  5900           8.995           1.030          13.217           4.578          18.810          18.167          18.811
  5910           8.995           1.030          13.217           4.586          18.842          18.199          18.842
  5920           8.996           1.030          13.217           4.594          18.874          18.231          18.874
  5930           8.996           1.030          13.217           4.601          18.906          18.263          18.906
  5940           8.996           1.030          13.217           4.609          18.938          18.295          18.938
  5950           8.996           1.030          13.217           4.617          18.969          18.326          18.970
  5960           8.996           1.030          13.217           4.625          19.001          18.358          19.002
  5970           8.996           1.030          13.217           4.632          19.033          18.390          19.033
  5980           8.996           1.030          13.217           4.640          19.065          18.422          19.065
  5990           8.996           1.030          13.217           4.648          19.097          18.454          19.097
  6000           8.996           1.030          13.217           4.656          19.129          18.486          19.129
  6010           8.996           1.030          13.218           4.663          19.161          18.517          19.161
  6020           8.996           1.030          13.218           4.671          19.192          18.549          19.193
  6030           8.996           1.030          13.218           4.679          19.224          18.581          19.225
  6040           8.996           1.030          13.218           4.687          19.256          18.613          19.256
  6050           8.996           1.030          13.218           4.694          19.288          18.645          19.288
  6060           8.996           1.030          13.218           4.702          19.320          18.677          19.320
  6070           8.996           1.030          13.218           4.710          19.352          18.709          19.352
  6080           8.996           1.030          13.218           4.718          19.383          18.740          19.384
  6090           8.996           1.030          13.218           4.725          19.415          18.772          19.416
  6100           8.996           1.030          13.218           4.733          19.447          18.804          19.448
  6110           8.996           1.030          13.218           4.741          19.479          18.836          19.479
  6120           8.996           1.030          13.218           4.749          19.511          18.868          19.511
  6130           8.996           1.030          13.218           4.756          19.543          18.900          19.543
  6140           8.996           1.030          13.218           4.764          19.575          18.932          19.575
  6150           8.996           1.030          13.218           4.772          19.606          18.963          19.607
  6160           8.996           1.030          13.218           4.780          19.638          18.995          19.639
  6170           8.996           1.030          13.218           4.787          19.670          19.027          19.670
  6180           8.996           1.030          13.218           4.795          19.702          19.059          19.702
  6190           8.996           1.030          13.218           4.803          19.734          19.091          19.734
  6200           8.996           1.030          13.218           4.811          19.766          19.123          19.766
  6210           8.996           1.030          13.218           4.818          19.798          19.155          19.798
  6220           8.996           1.030          13.218           4.826          19.829          19.186          19.830
  6230           8.996           1.030          13.218           4.834          19.861          19.218          19.862
  6240           8.996           1.030          13.218           4.842          19.893          19.250          19.893
  6250           8.996           1.030          13.218           4.849          19.925          19.282          19.925
  6260           8.996           1.030          13.218           4.857          19.957          19.314          19.957
  6270           8.996           1.030          13.218           4.865          19.989          19.346          19.989
  6280           8.996           1.030          13.218           4.873          20.021          19.377          20.021
  6290           8.996           1.030          13.218           4.880          20.052          19.409          20.053
  6300           8.996           1.030          13.218           4.888          20.084          19.441          20.085
  6310           8.996           1.030          13.218           4.896          20.116          19.473          20.116
  6320           8.996           1.030          13.218           4.904          20.148          19.505          20.148
  6330           8.996           1.030          13.218           4.911          20.180          19.537          20.180
  6340           8.996           1.030          13.218           4.919          20.212          19.569          20.212
  6350           8.996           1.030          13.218           4.927          20.243          19.600          20.244
  6360           8.996           1.030          13.218           4.935          20.275          19.632          20.276
  6370           8.996           1.030          13.218           4.942          20.307          19.664          20.307
  6380           8.996           1.030          13.218           4.950          20.339          19.696          20.339
  6390           8.996           1.030          13.218           4.958          20.371          19.728          20.371
  6400           8.996           1.030          13.218           4.966          20.403          19.760          20.403
  6410           8.996           1.030          13.218           4.973          20.435          19.792          20.435
  6420           8.996           1.030          13.218           4.981          20.466          19.823          20.467
  6430           8.996           1.030          13.218           4.989          20.498          19.855          20.499
  6440           8.996           1.030          13.218           4.997          20.530          19.887          20.530
  6450           8.996           1.030          13.218           5.004          20.562          19.919          20.562
  6460           8.996           1.030          13.218           5.012          20.594          19.951          20.594
  6470           8.996           1.030          13.218           5.020          20.626          19.983          20.626
  6480           8.996           1.030          13.218           5.028          20.658          20.015          20.658
  6490           8.996           1.030          13.218           5.035          20.689          20.046          20.690
  6500           8.996           1.030          13.218           5.043          20.721          20.078          20.722
  6510           8.996           1.030          13.218           5.051          20.753          20.110          20.753
  6520           8.996           1.030          13.218           5.059          20.785          20.142          20.785
  6530           8.996           1.030          13.218           5.066          20.817          20.174          20.817
  6540           8.996           1.030          13.218           5.074          20.849          20.206          20.849
  6550           8.996           1.030          13.218           5.082          20.881          20.237          20.881
  6560           8.996           1.030          13.219           5.090          20.912          20.269          20.913
  6570           8.996           1.030          13.219           5.098          20.944          20.301          20.945
  6580           8.996           1.030          13.219           5.105          20.976          20.333          20.976
  6590           8.996           1.030          13.219           5.113          21.008          20.365          21.008
  6600           8.996           1.030          13.219           5.121          21.040          20.397          21.040
  6610           8.996           1.030          13.219           5.129          21.072          20.429          21.072
  6620           8.996           1.030          13.219           5.136          21.103          20.460          21.104
  6630           8.996           1.030          13.219           5.144          21.135          20.492          21.136
  6640           8.996           1.030          13.219           5.152          21.167          20.524          21.168
  6650           8.996           1.030          13.219           5.160          21.199          20.556          21.199
  6660           8.996           1.030          13.219           5.167          21.231          20.588          21.231
  6670           8.996           1.030          13.219           5.175          21.263          20.620          21.263
  6680           8.996           1.030          13.219           5.183          21.295          20.652          21.295
  6690           8.996           1.030          13.219           5.191          21.326          20.683          21.327
  6700           8.996           1.030          13.219           5.198          21.358          20.715          21.359
  6710           8.997           1.030          13.219           5.206          21.390          20.747          21.390
  6720           8.997           1.030          13.219           5.214          21.422          20.779          21.422
  6730           8.997           1.030          13.219           5.222          21.454          20.811          21.454
  6740           8.997           1.030          13.219           5.229          21.486          20.843          21.486
  6750           8.997           1.030          13.219           5.237          21.518          20.875          21.518
  6760           8.997           1.030          13.219           5.245          21.549          20.906          21.550
  6770           8.997           1.030          13.219           5.253          21.581          20.938          21.582
  6780           8.997           1.030          13.219           5.260          21.613          20.970          21.613
  6790           8.997           1.030          13.219           5.268          21.645          21.002          21.645
  6800           8.997           1.030          13.219           5.276          21.677          21.034          21.677
  6810           8.997           1.030          13.219           5.284          21.709          21.066          21.709
  6820           8.997           1.030          13.219           5.291          21.741          21.098          21.741
  6830           8.997           1.030          13.219           5.299          21.772          21.129          21.773
  6840           8.997           1.030          13.219           5.307          21.804          21.161          21.805
  6850           8.997           1.030          13.219           5.315          21.836          21.193          21.836
  6860           8.997           1.030          13.219           5.322          21.868          21.225          21.868
  6870           8.997           1.030          13.219           5.330          21.900          21.257          21.900
  6880           8.997           1.030          13.219           5.338          21.932          21.289          21.932
  6890           8.997           1.030          13.219           5.346          21.964          21.321          21.964
  6900           8.997           1.030          13.219           5.353          21.995          21.352          21.996
  6910           8.997           1.030          13.219           5.361          22.027          21.384          22.028
  6920           8.997           1.030          13.219           5.369          22.059          21.416          22.059
  6930           8.997           1.030          13.219           5.377          22.091          21.448          22.091
  6940           8.997           1.030          13.219           5.384          22.123          21.480          22.123
  6950           8.997           1.030          13.219           5.392          22.155          21.512          22.155
  6960           8.997           1.030          13.219           5.400          22.187          21.544          22.187
  6970           8.997           1.030          13.219           5.408          22.218          21.575          22.219
  6980           8.997           1.030          13.219           5.415          22.250          21.607          22.251
  6990           8.997           1.030          13.219           5.423          22.282          21.639          22.282
  7000           8.997           1.030          13.219           5.431          22.314          21.671          22.314
  7010           8.997           1.030          13.219           5.439          22.346          21.703          22.346
  7020           8.997           1.030          13.219           5.446          22.378          21.735          22.378
  7030           8.997           1.030          13.219           5.454          22.410          21.766          22.410
  7040           8.997           1.030          13.219           5.462          22.441          21.798          22.442
  7050           8.997           1.030          13.219           5.470          22.473          21.830          22.474
  7060           8.997           1.030          13.219           5.477          22.505          21.862          22.505
  7070           8.997           1.030          13.219           5.485          22.537          21.894          22.537
  7080           8.997           1.030          13.219           5.493          22.569          21.926          22.569
  7090           8.997           1.030          13.219           5.501          22.601          21.958          22.601
  7100           8.997           1.030          13.219           5.508          22.633          21.989          22.633
  7110           8.997           1.030          13.219           5.516          22.664          22.021          22.665
  7120           8.997           1.030          13.219           5.524          22.696          22.053          22.697
  7130           8.997           1.030          13.219           5.532          22.728          22.085          22.728
  7140           8.997           1.030          13.219           5.539          22.760          22.117          22.760
  7150           8.997           1.030          13.219           5.547          22.792          22.149          22.792
  7160           8.997           1.030          13.219           5.555          22.824          22.181          22.824
  7170           8.997           1.030          13.219           5.563          22.855          22.212          22.856
  7180           8.997           1.030          13.219           5.570          22.887          22.244          22.888
  7190           8.997           1.030          13.219           5.578          22.919          22.276          22.919
  7200           8.997           1.030          13.219           5.586          22.951          22.308          22.951
  7210           8.997           1.030          13.219           5.594          22.983          22.340          22.983
  7220           8.997           1.030          13.219           5.601          23.015          22.372          23.015
  7230           8.997           1.030          13.219           5.609          23.047          22.404          23.047
  7240           8.997           1.030          13.219           5.617          23.078          22.435          23.079
  7250           8.997           1.030          13.219           5.625          23.110          22.467          23.111
  7260           8.997           1.030          13.219           5.632          23.142          22.499          23.142
  7270           8.997           1.030          13.219           5.640          23.174          22.531          23.174
  7280           8.997           1.030          13.220           5.648          23.206          22.563          23.206
  7290           8.997           1.030          13.220           5.656          23.238          22.595          23.238
  7300           8.997           1.030          13.220           5.663          23.270          22.627          23.270
  7310           8.997           1.030          13.220           5.671          23.301          22.658          23.302
  7320           8.997           1.030          13.220           5.679          23.333          22.690          23.334
  7330           8.997           1.030          13.220           5.687          23.365          22.722          23.365
  7340           8.997           1.030          13.220           5.694          23.397          22.754          23.397
  7350           8.997           1.030          13.220           5.702          23.429          22.786          23.429
  7360           8.997           1.030          13.220           5.710          23.461          22.818          23.461
  7370           8.997           1.030          13.220           5.718          23.493          22.850          23.493
  7380           8.997           1.030          13.220           5.725          23.524          22.881          23.525
  7390           8.997           1.030          13.220           5.733          23.556          22.913          23.557
  7400           8.997           1.030          13.220           5.741          23.588          22.945          23.588
  7410           8.997           1.030          13.220           5.749          23.620          22.977          23.620
  7420           8.997           1.030          13.220           5.756          23.652          23.009          23.652
  7430           8.997           1.030          13.220           5.764          23.684          23.041          23.684
  7440           8.997           1.030          13.220           5.772          23.716          23.073          23.716
  7450           8.997           1.030          13.220           5.780          23.747          23.104          23.748
  7460           8.997           1.030          13.220           5.788          23.779          23.136          23.780
  7470           8.997           1.030          13.220           5.795          23.811          23.168          23.811
  7480           8.997           1.030          13.220           5.803          23.843          23.200          23.843
  7490           8.997           1.030          13.220           5.811          23.875          23.232          23.875
  7500           8.997           1.030          13.220           5.819          23.907          23.264          23.907
  7510           8.997           1.030          13.220           5.826          23.939          23.296          23.939
  7520           8.997           1.030          13.220           5.834          23.970          23.327          23.971
  7530           8.997           1.030          13.220           5.842          24.002          23.359          24.003
  7540           8.997           1.030          13.220           5.850          24.034          23.391          24.034
  7550           8.997           1.030          13.220           5.857          24.066          23.423          24.066
  7560           8.997           1.030          13.220           5.865          24.098          23.455          24.098
  7570           8.997           1.030          13.220           5.873          24.130          23.487          24.130
  7580           8.997           1.030          13.220           5.881          24.162          23.519          24.162
  7590           8.997           1.030          13.220           5.888          24.193          23.550          24.194
  7600           8.997           1.030          13.220           5.896          24.225          23.582          24.226
  7610           8.997           1.030          13.220           5.904          24.257          23.614          24.257
  7620           8.997           1.030          13.220           5.912          24.289          23.646          24.289
  7630           8.997           1.030          13.220           5.919          24.321          23.678          24.321
  7640           8.997           1.030          13.220           5.927          24.353          23.710          24.353
  7650           8.997           1.030          13.220           5.935          24.385          23.742          24.385
  7660           8.997           1.030          13.220           5.943          24.416          23.773          24.417
  7670           8.997           1.030          13.220           5.950          24.448          23.805          24.449
  7680           8.997           1.030          13.220           5.958          24.480          23.837          24.480
  7690           8.997           1.030          13.220           5.966          24.512          23.869          24.512
  7700           8.997           1.030          13.220           5.974          24.544          23.901          24.544
  7710           8.997           1.030          13.220           5.981          24.576          23.933          24.576
  7720           8.997           1.030          13.220           5.989          24.608          23.965          24.608
  7730           8.997           1.030          13.220           5.997          24.639          23.996          24.640
  7740           8.997           1.030          13.220           6.005          24.671          24.028          24.672
  7750           8.997           1.030          13.220           6.012          24.703          24.060          24.703
  7760           8.997           1.030          13.220           6.020          24.735          24.092          24.735
  7770           8.997           1.030          13.220           6.028          24.767          24.124          24.767
  7780           8.997           1.030          13.220           6.036          24.799          24.156          24.799
  7790           8.997           1.030          13.220           6.043          24.831          24.188          24.831
  7800           8.997           1.030          13.220           6.051          24.862          24.219          24.863
  7810           8.997           1.030          13.220           6.059          24.894          24.251          24.895
  7820           8.997           1.030          13.220           6.067          24.926          24.283          24.926
  7830           8.997           1.030          13.220           6.074          24.958          24.315          24.958
  7840           8.997           1.030          13.220           6.082          24.990          24.347          24.990
  7850           8.997           1.030          13.220           6.090          25.022          24.379          25.022
  7860           8.997           1.030          13.220           6.098          25.054          24.411          25.054
  7870           8.997           1.030          13.220           6.105          25.085          24.442          25.086
  7880           8.997           1.030          13.220           6.113          25.117          24.474          25.118
  7890           8.997           1.030          13.220           6.121          25.149          24.506          25.149
  7900           8.997           1.030          13.220           6.129          25.181          24.538          25.181
  7910           8.997           1.030          13.220           6.136          25.213          24.570          25.213
  7920           8.997           1.030          13.220           6.144          25.245          24.602          25.245
  7930           8.997           1.030          13.220           6.152          25.277          24.634          25.277
  7940           8.998           1.030          13.220           6.160          25.308          24.665          25.309
  7950           8.998           1.030          13.220           6.167          25.340          24.697          25.341
  7960           8.998           1.030          13.220           6.175          25.372          24.729          25.372
  7970           8.998           1.030          13.220           6.183          25.404          24.761          25.404
  7980           8.998           1.030          13.220           6.191          25.436          24.793          25.436
  7990           8.998           1.030          13.220           6.198          25.468          24.825          25.468
  8000           8.998           1.030          13.220           6.206          25.500          24.857          25.500
  8010           8.998           1.030          13.220           6.214          25.531          24.888          25.532
  8020           8.998           1.030          13.220           6.222          25.563          24.920          25.564
  8030           8.998           1.030          13.220           6.229          25.595          24.952          25.595
  8040           8.998           1.030          13.220           6.237          25.627          24.984          25.627
  8050           8.998           1.030          13.220           6.245          25.659          25.016          25.659
  8060           8.998           1.030          13.220           6.253          25.691          25.048          25.691
  8070           8.998           1.030          13.220           6.260          25.723          25.080          25.723
  8080           8.998           1.030          13.220           6.268          25.754          25.111          25.755
  8090           8.998           1.030          13.220           6.276          25.786          25.143          25.787
  8100           8.998           1.030          13.220           6.284          25.818          25.175          25.818
  8110           8.998           1.030          13.220           6.291          25.850          25.207          25.850
  8120           8.998           1.030          13.220           6.299          25.882          25.239          25.882
  8130           8.998           1.030          13.220           6.307          25.914          25.271          25.914
  8140           8.998           1.030          13.220           6.315          25.946          25.303          25.946
  8150           8.998           1.030          13.220           6.322          25.977          25.334          25.978
  8160           8.998           1.030          13.220           6.330          26.009          25.366          26.010
  8170           8.998           1.030          13.220           6.338          26.041          25.398          26.041
  8180           8.998           1.030          13.220           6.346          26.073          25.430          26.073
  8190           8.998           1.030          13.220           6.354          26.105          25.462          26.105
  8200           8.998           1.030          13.220           6.361          26.137          25.494          26.137
  8210           8.998           1.030          13.220           6.369          26.169          25.526          26.169
  8220           8.998           1.030          13.220           6.377          26.200          25.557          26.201
  8230           8.998           1.030          13.220           6.385          26.232          25.589          26.233
  8240           8.998           1.030          13.220           6.392          26.264          25.621          26.264
  8250           8.998           1.030          13.220           6.400          26.296          25.653          26.296
  8260           8.998           1.030          13.220           6.408          26.328          25.685          26.328
  8270           8.998           1.030          13.220           6.416          26.360          25.717          26.360
  8280           8.998           1.030          13.220           6.423          26.392          25.749          26.392
  8290           8.998           1.030          13.220           6.431          26.423          25.780          26.424
  8300           8.998           1.030          13.220           6.439          26.455          25.812          26.456
  8310           8.998           1.030          13.221           6.447          26.487          25.844          26.487
  8320           8.998           1.030          13.221           6.454          26.519          25.876          26.519
  8330           8.998           1.030          13.221           6.462          26.551          25.908          26.551
  8340           8.998           1.030          13.221           6.470          26.583          25.940          26.583
  8350           8.998           1.030          13.221           6.478          26.615          25.972          26.615
  8360           8.998           1.030          13.221           6.485          26.646          26.003          26.647
  8370           8.998           1.030          13.221           6.493          26.678          26.035          26.679
  8380           8.998           1.030          13.221           6.501          26.710          26.067          26.710
  8390           8.998           1.030          13.221           6.509          26.742          26.099          26.742
  8400           8.998           1.030          13.221           6.516          26.774          26.131          26.774
  8410           8.998           1.030          13.221           6.524          26.806          26.163          26.806
  8420           8.998           1.030          13.221           6.532          26.838          26.195          26.838
  8430           8.998           1.030          13.221           6.540          26.869          26.226          26.870
  8440           8.998           1.030          13.221           6.547          26.901          26.258          26.902
  8450           8.998           1.030          13.221           6.555          26.933          26.290          26.933
  8460           8.998           1.030          13.221           6.563          26.965          26.322          26.965
  8470           8.998           1.030          13.221           6.571          26.997          26.354          26.997
  8480           8.998           1.030          13.221           6.578          27.029          26.386          27.029
  8490           8.998           1.030          13.221           6.586          27.061          26.418          27.061
  8500           8.998           1.030          13.221           6.594          27.092          26.449          27.093
  8510           8.998           1.030          13.221           6.602          27.124          26.481          27.125
  8520           8.998           1.030          13.221           6.609          27.156          26.513          27.156
  8530           8.998           1.030          13.221           6.617          27.188          26.545          27.188
  8540           8.998           1.030          13.221           6.625          27.220          26.577          27.220
  8550           8.998           1.030          13.221           6.633          27.252          26.609          27.252
  8560           8.998           1.030          13.221           6.640          27.284          26.641          27.284
  8570           8.998           1.030          13.221           6.648          27.315          26.672          27.316
  8580           8.998           1.030          13.221           6.656          27.347          26.704          27.348
  8590           8.998           1.030          13.221           6.664          27.379          26.736          27.379
  8600           8.998           1.030          13.221           6.671          27.411          26.768          27.411
  8610           8.998           1.030          13.221           6.679          27.443          26.800          27.443
  8620           8.998           1.030          13.221           6.687          27.475          26.832          27.475
  8630           8.998           1.030          13.221           6.695          27.507          26.864          27.507
  8640           8.998           1.030          13.221           6.702          27.538          26.895          27.539
  8650           8.998           1.030          13.221           6.710          27.570          26.927          27.571
  8660           8.998           1.030          13.221           6.718          27.602          26.959          27.602
  8670           8.998           1.030          13.221           6.726          27.634          26.991          27.634
  8680           8.998           1.030          13.221           6.733          27.666          27.023          27.666
  8690           8.998           1.030          13.221           6.741          27.698          27.055          27.698
  8700           8.998           1.030          13.221           6.749          27.730          27.087          27.730
  8710           8.998           1.030          13.221           6.757          27.761          27.118          27.762
  8720           8.998           1.030          13.221           6.764          27.793          27.150          27.794
  8730           8.998           1.030          13.221           6.772          27.825          27.182          27.825
  8740           8.998           1.030          13.221           6.780          27.857          27.214          27.857
  8750           8.998           1.030          13.221           6.788          27.889          27.246          27.889
  8760           8.998           1.030          13.221           6.795          27.921          27.278          27.921
  8770           8.998           1.030          13.221           6.803          27.953          27.310          27.953
  8780           8.998           1.030          13.221           6.811          27.984          27.341          27.985
  8790           8.998           1.030          13.221           6.819          28.016          27.373          28.017
  8800           8.998           1.030          13.221           6.826          28.048          27.405          28.048
  8810           8.998           1.030          13.221           6.834          28.080          27.437          28.080
  8820           8.998           1.030          13.221           6.842          28.112          27.469          28.112
  8830           8.998           1.030          13.221           6.850          28.144          27.501          28.144
  8840           8.998           1.030          13.221           6.857          28.176          27.533          28.176
  8850           8.998           1.030          13.221           6.865          28.208          27.564          28.208
  8860           8.998           1.030          13.221           6.873          28.239          27.596          28.240
  8870           8.998           1.030          13.221           6.881          28.271          27.628          28.271
  8880           8.998           1.030          13.221           6.889          28.303          27.660          28.303
  8890           8.998           1.030          13.221           6.896          28.335          27.692          28.335
  8900           8.998           1.030          13.221           6.904          28.367          27.724          28.367
  8910           8.998           1.030          13.221           6.912          28.399          27.756          28.399
  8920           8.998           1.030          13.221           6.920          28.431          27.787          28.431
  8930           8.998           1.030          13.221           6.927          28.462          27.819          28.463
  8940           8.998           1.030          13.221           6.935          28.494          27.851          28.494
  8950           8.998           1.030          13.221           6.943          28.526          27.883          28.526
  8960           8.998           1.030          13.221           6.951          28.558          27.915          28.558
  8970           8.998           1.030          13.221           6.958          28.590          27.947          28.590
  8980           8.998           1.030          13.221           6.966          28.622          27.979          28.622
  8990           8.998           1.030          13.221           6.974          28.654          28.011          28.654
  9000           8.998           1.030          13.221           6.982          28.685          28.042          28.686
  9010           8.998           1.030          13.221           6.989          28.717          28.074          28.717
  9020           8.998           1.030          13.221           6.997          28.749          28.106          28.749
  9030           8.998           1.030          13.221           7.005          28.781          28.138          28.781
  9040           8.998           1.030          13.221           7.013          28.813          28.170          28.813
  9050           8.998           1.030          13.221           7.020          28.845          28.202          28.845
  9060           8.998           1.030          13.221           7.028          28.877          28.234          28.877
  9070           8.998           1.030          13.221           7.036          28.908          28.265          28.909
  9080           8.998           1.030          13.221           7.044          28.940          28.297          28.940
  9090           8.998           1.030          13.221           7.051          28.972          28.329          28.972
  9100           8.998           1.030          13.221           7.059          29.004          28.361          29.004
  9110           8.998           1.030          13.221           7.067          29.036          28.393          29.036
  9120           8.998           1.030          13.221           7.075          29.068          28.425          29.068
  9130           8.998           1.030          13.221           7.082          29.100          28.457          29.100
  9140           8.998           1.030          13.221           7.090          29.131          28.488          29.132
  9150           8.998           1.030          13.221           7.098          29.163          28.520          29.164
  9160           8.998           1.030          13.221           7.106          29.195          28.552          29.195
  9170           8.998           1.030          13.221           7.113          29.227          28.584          29.227
  9180           8.998           1.030          13.221           7.121          29.259          28.616          29.259
  9190           8.998           1.030          13.221           7.129          29.291          28.648          29.291
  9200           8.998           1.030          13.221           7.137          29.323          28.680          29.323
  9210           8.998           1.030          13.221           7.144          29.354          28.711          29.355
  9220           8.998           1.030          13.221           7.152          29.386          28.743          29.387
  9230           8.998           1.030          13.221           7.160          29.418          28.775          29.418
  9240           8.998           1.030          13.221           7.168          29.450          28.807          29.450
  9250           8.998           1.030          13.221           7.175          29.482          28.839          29.482
  9260           8.998           1.030          13.221           7.183          29.514          28.871          29.514
  9270           8.998           1.030          13.221           7.191          29.546          28.903          29.546
  9280           8.998           1.030          13.221           7.199          29.577          28.934          29.578
  9290           8.998           1.030          13.221           7.206          29.609          28.966          29.610
  9300           8.998           1.030          13.221           7.214          29.641          28.998          29.641
  9310           8.998           1.030          13.221           7.222          29.673          29.030          29.673
  9320           8.998           1.030          13.221           7.230          29.705          29.062          29.705
  9330           8.998           1.030          13.221           7.237          29.737          29.094          29.737
  9340           8.998           1.030          13.221           7.245          29.769          29.126          29.769
  9350           8.998           1.030          13.221           7.253          29.800          29.157          29.801
  9360           8.998           1.030          13.221           7.261          29.832          29.189          29.833
  9370           8.998           1.030          13.221           7.268          29.864          29.221          29.864
  9380           8.998           1.030          13.221           7.276          29.896          29.253          29.896
  9390           8.998           1.030          13.221           7.284          29.928          29.285          29.928
  9400           8.998           1.030          13.221           7.292          29.960          29.317          29.960
  9410           8.998           1.030          13.221           7.299          29.992          29.349          29.992
  9420           8.998           1.030          13.221           7.307          30.023          29.380          30.024
  9430           8.998           1.030          13.221           7.315          30.055          29.412          30.056
  9440           8.998           1.030          13.221           7.323          30.087          29.444          30.087
  9450           8.998           1.030          13.221           7.330          30.119          29.476          30.119
  9460           8.998           1.030          13.221           7.338          30.151          29.508          30.151
  9470           8.998           1.030          13.221           7.346          30.183          29.540          30.183
  9480           8.998           1.030          13.221           7.354          30.215          29.572          30.215
  9490           8.998           1.030          13.221           7.362          30.247          29.603          30.247
  9500           8.998           1.030          13.221           7.369          30.278          29.635          30.279
  9510           8.998           1.030          13.221           7.377          30.310          29.667          30.310
  9520           8.998           1.030          13.221           7.385          30.342          29.699          30.342
  9530           8.998           1.030          13.221           7.393          30.374          29.731          30.374
  9540           8.998           1.030          13.221           7.400          30.406          29.763          30.406
  9550           8.998           1.030          13.221           7.408          30.438          29.795          30.438
  9560           8.998           1.030          13.221           7.416          30.470          29.827          30.470
  9570           8.998           1.030          13.221           7.424          30.501          29.858          30.502
  9580           8.998           1.030          13.221           7.431          30.533          29.890          30.533
  9590           8.998           1.030          13.221           7.439          30.565          29.922          30.565
  9600           8.998           1.030          13.221           7.447          30.597          29.954          30.597
  9610           8.998           1.030          13.221           7.455          30.629          29.986          30.629
  9620           8.998           1.030          13.221           7.462          30.661          30.018          30.661
  9630           8.998           1.030          13.221           7.470          30.693          30.050          30.693
  9640           8.998           1.030          13.221           7.478          30.724          30.081          30.725
  9650           8.998           1.030          13.221           7.486          30.756          30.113          30.756
  9660           8.998           1.030          13.221           7.493          30.788          30.145          30.788
  9670           8.998           1.030          13.221           7.501          30.820          30.177          30.820
  9680           8.998           1.030          13.221           7.509          30.852          30.209          30.852
  9690           8.998           1.030          13.221           7.517          30.884          30.241          30.884
  9700           8.998           1.030          13.221           7.524          30.916          30.273          30.916
  9710           8.998           1.030          13.221           7.532          30.947          30.304          30.948
  9720           8.998           1.030          13.221           7.540          30.979          30.336          30.980
  9730           8.998           1.030          13.221           7.548          31.011          30.368          31.011
  9740           8.998           1.030          13.221           7.555          31.043          30.400          31.043
  9750           8.998           1.030          13.221           7.563          31.075          30.432          31.075
  9760           8.998           1.030          13.221           7.571          31.107          30.464          31.107
  9770           8.998           1.030          13.221           7.579          31.139          30.496          31.139
  9780           8.998           1.030          13.221           7.586          31.170          30.527          31.171
  9790           8.998           1.030          13.221           7.594          31.202          30.559          31.203
  9800           8.998           1.030          13.221           7.602          31.234          30.591          31.234
  9810           8.998           1.030          13.221           7.610          31.266          30.623          31.266
  9820           8.998           1.030          13.221           7.617          31.298          30.655          31.298
  9830           8.998           1.030          13.221           7.625          31.330          30.687          31.330
  9840           8.998           1.030          13.221           7.633          31.362          30.719          31.362
  9850           8.998           1.030          13.221           7.641          31.393          30.750          31.394
  9860           8.998           1.030          13.221           7.648          31.425          30.782          31.426
  9870           8.998           1.030          13.221           7.656          31.457          30.814          31.457
  9880           8.998           1.030          13.221           7.664          31.489          30.846          31.489
  9890           8.998           1.030          13.221           7.672          31.521          30.878          31.521
  9900           8.998           1.030          13.221           7.679          31.553          30.910          31.553
  9910           8.998           1.030          13.221           7.687          31.585          30.942          31.585
  9920           8.998           1.030          13.221           7.695          31.616          30.973          31.617
  9930           8.998           1.030          13.221           7.703          31.648          31.005          31.649
  9940           8.998           1.030          13.221           7.710          31.680          31.037          31.680
  9950           8.998           1.030          13.221           7.718          31.712          31.069          31.712
  9960           8.998           1.030          13.222           7.726          31.744          31.101          31.744
  9970           8.998           1.030          13.222           7.734          31.776          31.133          31.776
  9980           8.998           1.030          13.222           7.741          31.808          31.163          31.808
  9990           8.998           1.030          13.222           7.749          31.840          31.200          31.840
 10000           8.998           1.030          13.222           7.757          31.871          31.212          31.872
