# Macroscopic dielectric function obtained with the BS equation.
#  RPA L0 with KS energies and KS wavefunctions     LOCAL FIELD EFFECTS INCLUDED
# RESONANT+COUPLING calculation
# Coulomb term constructed with full W(G1,G2)
# Scissor operator energy =  0.8000 [eV]
# nstates included in the diagonalization = 768
# npweps  = 51
# npwwfn  = 169
# nbands  = 8
# loband  = 2
# nkibz   = 2
# nkbz    = 32
# Lorentzian broadening =  0.1000 [eV]
# List of q-points for the optical limit:
# q =  0.938821, 0.000000, 0.000000, [Reduced coords] 
# q =  0.000000, 0.938821, 0.000000, [Reduced coords] 
# q =  0.000000, 0.000000, 0.938821, [Reduced coords] 
# q =  0.000000, 0.813043, 0.813043, [Reduced coords] 
# q =  0.813043, 0.000000, 0.813043, [Reduced coords] 
# q =  0.813043, 0.813043, 0.000000, [Reduced coords] 
# omega [eV]    RE(eps(q=1)) IM(eps(q=1) RE(eps(q=2) ) ... DOS   IDOS
  0.000   21.0322    0.0000   21.0332    0.0000   21.0334    0.0000   21.0317   -0.0000   21.0329    0.0000   21.0344    0.0000    0.0000    0.0000
  0.100   21.0472    0.0301   21.0482    0.0301   21.0484    0.0301   21.0467    0.0301   21.0479    0.0301   21.0494    0.0301    0.0000    0.0000
  0.200   21.0924    0.0605   21.0934    0.0606   21.0936    0.0605   21.0918    0.0605   21.0930    0.0605   21.0945    0.0606    0.0000    0.0000
  0.300   21.1681    0.0915   21.1691    0.0916   21.1693    0.0916   21.1675    0.0915   21.1688    0.0915   21.1703    0.0916    0.0000    0.0000
  0.400   21.2751    0.1234   21.2762    0.1235   21.2764    0.1235   21.2746    0.1234   21.2758    0.1235   21.2774    0.1235    0.0000    0.0000
  0.500   21.4146    0.1566   21.4157    0.1567   21.4158    0.1566   21.4140    0.1566   21.4153    0.1566   21.4168    0.1567    0.0000    0.0000
  0.600   21.5878    0.1914   21.5890    0.1915   21.5891    0.1914   21.5872    0.1914   21.5885    0.1914   21.5901    0.1915    0.0000    0.0000
  0.700   21.7966    0.2282   21.7979    0.2283   21.7980    0.2283   21.7961    0.2282   21.7974    0.2282   21.7991    0.2283    0.0000    0.0000
  0.800   22.0433    0.2675   22.0447    0.2676   22.0448    0.2676   22.0428    0.2675   22.0442    0.2676   22.0459    0.2676    0.0000    0.0000
  0.900   22.3306    0.3099   22.3321    0.3101   22.3322    0.3100   22.3301    0.3099   22.3316    0.3100   22.3333    0.3101    0.0000    0.0000
  1.000   22.6619    0.3561   22.6636    0.3562   22.6636    0.3562   22.6614    0.3561   22.6629    0.3561   22.6648    0.3562    0.0000    0.0000
  1.100   23.0412    0.4067   23.0430    0.4069   23.0430    0.4068   23.0407    0.4067   23.0423    0.4068   23.0443    0.4069    0.0000    0.0000
  1.200   23.4735    0.4628   23.4754    0.4630   23.4753    0.4629   23.4729    0.4628   23.4746    0.4629   23.4767    0.4630    0.0000    0.0000
  1.300   23.9645    0.5255   23.9667    0.5257   23.9666    0.5256   23.9640    0.5255   23.9658    0.5256   23.9680    0.5257    0.0000    0.0000
  1.400   24.5217    0.5962   24.5241    0.5965   24.5239    0.5964   24.5211    0.5962   24.5231    0.5964   24.5254    0.5965    0.0000    0.0000
  1.500   25.1537    0.6769   25.1564    0.6772   25.1561    0.6771   25.1531    0.6769   25.1552    0.6771   25.1577    0.6772    0.0000    0.0000
  1.600   25.8713    0.7698   25.8744    0.7702   25.8740    0.7701   25.8707    0.7698   25.8731    0.7700   25.8757    0.7702    0.0000    0.0000
  1.700   26.6881    0.8780   26.6915    0.8784   26.6910    0.8783   26.6875    0.8780   26.6900    0.8782   26.6929    0.8785    0.0000    0.0000
  1.800   27.6207    1.0055   27.6247    1.0060   27.6240    1.0059   27.6201    1.0055   27.6229    1.0058   27.6261    1.0061    0.0000    0.0000
  1.900   28.6907    1.1578   28.6952    1.1584   28.6943    1.1583   28.6900    1.1578   28.6931    1.1581   28.6966    1.1585    0.0000    0.0000
  2.000   29.9253    1.3424   29.9305    1.3431   29.9295    1.3429   29.9247    1.3424   29.9281    1.3428   29.9319    1.3432    0.0000    0.0000
  2.100   31.3607    1.5697   31.3666    1.5706   31.3653    1.5703   31.3600    1.5697   31.3639    1.5702   31.3681    1.5707    0.0000    0.0000
  2.200   33.0446    1.8551   33.0515    1.8562   33.0500    1.8559   33.0440    1.8551   33.0483    1.8557   33.0531    1.8562    0.0000    0.0000
  2.300   35.0426    2.2213   35.0506    2.2226   35.0487    2.2222   35.0419    2.2213   35.0469    2.2219   35.0522    2.2227    0.0000    0.0000
  2.400   37.4461    2.7034   37.4556    2.7051   37.4533    2.7046   37.4454    2.7034   37.4511    2.7042   37.4573    2.7051    0.0000    0.0000
  2.500   40.3874    3.3584   40.3987    3.3605   40.3958    3.3598   40.3867    3.3583   40.3933    3.3594   40.4005    3.3606    0.0000    0.0000
  2.600   44.0643    4.2829   44.0779    4.2857   44.0743    4.2848   44.0635    4.2828   44.0714    4.2843   44.0798    4.2859    0.0000    0.0000
  2.700   48.7861    5.6527   48.8028    5.6566   48.7983    5.6554   48.7852    5.6526   48.7948    5.6547   48.8049    5.6568    0.0000    0.0000
  2.800   55.0609    7.8139   55.0820    7.8195   55.0760    7.8177   55.0599    7.8137   55.0718    7.8167   55.0843    7.8198    0.0003    0.0000
  2.900   63.7712   11.5233   63.7986   11.5321   63.7907   11.5293   63.7700   11.5230   63.7853   11.5278   63.8012   11.5326    0.0409    0.0002
  3.000   76.5193   18.6851   76.5562   18.7004   76.5453   18.6955   76.5177   18.6843   76.5382   18.6929   76.5595   18.7015    1.8796    0.0071
  3.100   96.0139   35.0613   96.0656   35.0933   96.0500   35.0829   96.0118   35.0591   96.0404   35.0775   96.0697   35.0957   34.3388    0.1333
  3.200  121.2710   81.8055  121.3333   81.8902  121.3148   81.8622  121.2697   81.7984  121.3028   81.8485  121.3374   81.8973  266.5276    1.1127
  3.300   70.9517  196.5440   70.8857  196.6918   70.9125  196.6447   70.9693  196.5363   70.9184  196.6191   70.8748  196.7021  945.7316    4.5882
  3.400  -77.1198  135.4206  -77.1771  135.4160  -77.1586  135.4226  -77.1162  135.4347  -77.1487  135.4182  -77.1815  135.4089 1566.0067   10.3432
  3.500  -65.4558   53.4855  -65.4667   53.4919  -65.4647   53.4916  -65.4581   53.4910  -65.4612   53.4887  -65.4668   53.4891 1148.6749   14.5645
  3.600  -40.3627   27.0456  -40.3586   27.0595  -40.3609   27.0557  -40.3633   27.0484  -40.3606   27.0526  -40.3596   27.0578  347.4908   15.8415
  3.700  -22.3473   17.4572  -22.3269   17.4787  -22.3342   17.4720  -22.3458   17.4600  -22.3370   17.4680  -22.3293   17.4765   41.2320   15.9930
  3.800   -8.4442   13.9849   -8.4000   14.0205   -8.4149   14.0089   -8.4400   13.9889   -8.4219   14.0027   -8.4046   14.0168    1.8747   15.9999
  3.900    4.1281   13.9720    4.2111   14.0398    4.1835   14.0174    4.1365   13.9796    4.1698   14.0058    4.2025   14.0324    0.5798   16.0020
  4.000   17.7206   17.8330   17.8702   17.9858   17.8206   17.9349   17.7363   17.8505   17.7955   17.9091   17.8545   17.9683   14.0506   16.0537
  4.100   34.7294   30.2229   34.9660   30.6500   34.8877   30.5070   34.7544   30.2729   34.8480   30.4354   34.9413   30.5993  139.0664   16.5647
  4.200   49.8997   69.9842   49.6820   71.3316   49.7582   70.8801   49.8672   70.1444   49.7949   70.6551   49.7179   71.1686  587.8421   18.7250
  4.300  -17.1534  129.7205  -19.8771  129.1349  -18.9633  129.3407  -17.4950  129.6345  -18.5156  129.4386  -19.5286  129.2320 1375.3818   23.7795
  4.400  -71.9015   63.1386  -71.6967   61.7323  -71.7696   62.2049  -71.8666   62.9509  -71.8008   62.4349  -71.7364   61.9242 2108.2383   31.5271
  4.500  -56.0262   27.1028  -55.6039   26.6500  -55.7469   26.8016  -55.9624   27.0410  -55.8156   26.8769  -55.6700   26.7127 1678.8568   37.6968
  4.600  -40.9291   15.4056  -40.6395   15.2297  -40.7373   15.2888  -40.8833   15.3818  -40.7848   15.3179  -40.6868   15.2541  556.2909   39.7411
  4.700  -29.7751   11.5481  -29.5720   11.4667  -29.6405   11.4943  -29.7408   11.5380  -29.6739   11.5076  -29.6071   11.4773  129.1648   40.2158
  4.800  -20.5207   12.4073  -20.3667   12.3694  -20.4184   12.3825  -20.4932   12.4057  -20.4439   12.3885  -20.3947   12.3716  521.4561   42.1321
  4.900  -15.1939   20.9774  -15.0740   20.9727  -15.1140   20.9751  -15.1798   20.9830  -15.1339   20.9753  -15.0881   20.9681 1964.8826   49.3529
  5.000  -27.2012   27.8921  -27.1248   27.9015  -27.1508   27.9000  -27.1837   27.8863  -27.1630   27.8975  -27.1432   27.9090 3205.0402   61.1312
  5.100  -34.0137   14.6353  -33.9587   14.6351  -33.9784   14.6362  -34.0010   14.6375  -33.9867   14.6358  -33.9729   14.6339 2207.8826   69.2450
  5.200  -28.9060    7.1450  -28.8573    7.1417  -28.8747    7.1433  -28.8952    7.1456  -28.8822    7.1436  -28.8693    7.1416  652.9765   71.6447
  5.300  -24.3320    4.4530  -24.2873    4.4502  -24.3031    4.4514  -24.3213    4.4534  -24.3100    4.4517  -24.2990    4.4501   90.1467   71.9760
  5.400  -20.8724    3.2847  -20.8300    3.2834  -20.8449    3.2840  -20.8613    3.2855  -20.8515    3.2841  -20.8420    3.2828    8.9847   72.0090
  5.500  -18.0717    2.7835  -18.0299    2.7847  -18.0445    2.7845  -18.0596    2.7852  -18.0510    2.7842  -18.0427    2.7831   54.8671   72.2106
  5.600  -15.5930    2.8440  -15.5496    2.8503  -15.5646    2.8483  -15.5791    2.8479  -15.5715    2.8472  -15.5641    2.8466  471.0524   73.9417
  5.700  -13.4636    4.0642  -13.4177    4.0841  -13.4334    4.0777  -13.4474    4.0740  -13.4408    4.0742  -13.4343    4.0745 1684.7857   80.1332
  5.800  -14.5791    6.3878  -14.5529    6.4333  -14.5620    6.4186  -14.5695    6.4106  -14.5661    6.4107  -14.5629    6.4110 2472.2232   89.2184
  5.900  -16.0618    3.7589  -16.0688    3.7865  -16.0671    3.7776  -16.0703    3.7746  -16.0656    3.7728  -16.0611    3.7711 1464.2439   94.5994
  6.000  -14.5468    2.0302  -14.5519    2.0401  -14.5508    2.0369  -14.5542    2.0361  -14.5496    2.0352  -14.5452    2.0343  346.8658   95.8741
  6.100  -13.1150    1.3929  -13.1162    1.3971  -13.1163    1.3957  -13.1199    1.3956  -13.1158    1.3950  -13.1119    1.3944   32.9628   95.9953
  6.200  -11.9597    1.0917  -11.9586    1.0937  -11.9594    1.0931  -11.9629    1.0932  -11.9593    1.0927  -11.9559    1.0923    1.3006   96.0000
  6.300  -10.9923    0.9212  -10.9900    0.9222  -10.9912    0.9219  -10.9945    0.9221  -10.9913    0.9217  -10.9883    0.9213    1.6362   96.0060
  6.400  -10.1486    0.8232  -10.1457    0.8238  -10.1471    0.8236  -10.1501    0.8239  -10.1473    0.8235  -10.1447    0.8231   32.8884   96.1269
  6.500   -9.3908    0.8012   -9.3876    0.8014   -9.3890    0.8014   -9.3917    0.8018   -9.3893    0.8013   -9.3870    0.8009  249.9778   97.0456
  6.600   -8.7900    0.9223   -8.7867    0.9224   -8.7881    0.9224   -8.7907    0.9231   -8.7885    0.9224   -8.7864    0.9217  715.6000   99.6753
  6.700   -8.5042    0.8375   -8.5009    0.8374   -8.5023    0.8375   -8.5051    0.8382   -8.5027    0.8375   -8.5003    0.8367  782.3467  102.5504
  6.800   -7.9821    0.6214   -7.9789    0.6212   -7.9802    0.6213   -7.9829    0.6217   -7.9806    0.6213   -7.9784    0.6209  333.5271  103.7761
  6.900   -7.4460    0.5294   -7.4430    0.5291   -7.4442    0.5292   -7.4466    0.5295   -7.4446    0.5293   -7.4426    0.5290   56.9230  103.9853
  7.000   -6.9529    0.4837   -6.9501    0.4834   -6.9513    0.4835   -6.9534    0.4838   -6.9516    0.4836   -6.9499    0.4833    6.8610  104.0105
  7.100   -6.4900    0.4628   -6.4875    0.4624   -6.4886    0.4626   -6.4904    0.4628   -6.4888    0.4626   -6.4873    0.4624   51.7624  104.2007
  7.200   -6.0419    0.4716   -6.0399    0.4708   -6.0408    0.4711   -6.0424    0.4715   -6.0410    0.4712   -6.0397    0.4710  397.8228  105.6627
  7.300   -5.6012    0.5530   -5.5997    0.5513   -5.6004    0.5519   -5.6017    0.5524   -5.6005    0.5522   -5.5994    0.5520 1424.4910  110.8976
  7.400   -5.3226    0.8132   -5.3199    0.8093   -5.3210    0.8107   -5.3222    0.8117   -5.3213    0.8113   -5.3205    0.8109 2375.5554  119.6276
  7.500   -5.3741    0.7104   -5.3691    0.7084   -5.3710    0.7091   -5.3728    0.7100   -5.3717    0.7094   -5.3706    0.7088 1719.3451  125.9461
  7.600   -5.0298    0.4790   -5.0255    0.4781   -5.0271    0.4784   -5.0288    0.4789   -5.0277    0.4786   -5.0268    0.4782  500.5637  127.7856
  7.700   -4.6349    0.4064   -4.6311    0.4059   -4.6326    0.4061   -4.6339    0.4064   -4.6331    0.4062   -4.6323    0.4059   55.9650  127.9913
  7.800   -4.2537    0.3926   -4.2503    0.3923   -4.2516    0.3924   -4.2527    0.3927   -4.2521    0.3925   -4.2515    0.3922    3.4403  128.0039
  7.900   -3.8680    0.4178   -3.8648    0.4175   -3.8660    0.4176   -3.8668    0.4179   -3.8665    0.4177   -3.8662    0.4174   30.5237  128.1161
  8.000   -3.4536    0.5077   -3.4506    0.5076   -3.4517    0.5076   -3.4523    0.5080   -3.4522    0.5077   -3.4521    0.5074  337.8592  129.3577
  8.100   -3.0204    0.7857   -3.0176    0.7858   -3.0186    0.7858   -3.0188    0.7862   -3.0190    0.7858   -3.0193    0.7854 1541.2252  135.0216
  8.200   -3.0547    1.3554   -3.0526    1.3559   -3.0534    1.3558   -3.0530    1.3565   -3.0537    1.3557   -3.0544    1.3549 3018.9753  146.1161
  8.300   -3.3480    1.0274   -3.3468    1.0272   -3.3473    1.0273   -3.3469    1.0285   -3.3475    1.0273   -3.3481    1.0261 2656.9949  155.8804
  8.400   -2.8690    0.7462   -2.8682    0.7453   -2.8685    0.7456   -2.8676    0.7471   -2.8686    0.7457   -2.8697    0.7444 1460.1290  161.2463
  8.500   -2.2614    0.8567   -2.2606    0.8538   -2.2609    0.8548   -2.2592    0.8579   -2.2610    0.8553   -2.2628    0.8527 2318.1774  169.7654
  8.600   -1.7638    1.4059   -1.7570    1.4018   -1.7593    1.4033   -1.7603    1.4089   -1.7605    1.4039   -1.7606    1.3989 4824.9716  187.4969
  8.700   -1.9634    1.8924   -1.9623    1.9004   -1.9627    1.8978   -1.9644    1.8991   -1.9628    1.8964   -1.9614    1.8938 5796.2222  208.7976
  8.800   -1.6048    1.9893   -1.6094    1.9837   -1.6079    1.9856   -1.6066    1.9901   -1.6071    1.9865   -1.6076    1.9829 4733.3896  226.1925
  8.900   -1.3523    2.5384   -1.3490    2.5338   -1.3500    2.5354   -1.3523    2.5439   -1.3506    2.5362   -1.3489    2.5283 3529.5144  239.1632
  9.000   -0.6881    4.1428   -0.6841    4.1341   -0.6853    4.1373   -0.6928    4.1466   -0.6861    4.1386   -0.6792    4.1305 2498.6165  248.3455
  9.100   -4.2446    6.5308   -4.2275    6.5342   -4.2333    6.5336   -4.2504    6.5290   -4.2362    6.5326   -4.2217    6.5366 1334.7982  253.2508
  9.200   -6.2700    3.0396   -6.2682    3.0461   -6.2692    3.0442   -6.2709    3.0378   -6.2692    3.0429   -6.2678    3.0483  494.8996  255.0695
  9.300   -5.3176    1.3830   -5.3169    1.3850   -5.3175    1.3844   -5.3181    1.3825   -5.3173    1.3840   -5.3168    1.3856  174.9556  255.7124
  9.400   -4.4865    0.8211   -4.4853    0.8219   -4.4860    0.8217   -4.4871    0.8210   -4.4860    0.8215   -4.4850    0.8221   64.7667  255.9504
  9.500   -3.8667    0.5969   -3.8651    0.5973   -3.8658    0.5972   -3.8673    0.5969   -3.8659    0.5971   -3.8647    0.5974   12.5197  255.9965
  9.600   -3.3573    0.5134   -3.3554    0.5138   -3.3562    0.5137   -3.3579    0.5135   -3.3564    0.5136   -3.3550    0.5138    1.0690  256.0004
  9.700   -2.8831    0.5283   -2.8809    0.5287   -2.8818    0.5286   -2.8836    0.5284   -2.8820    0.5285   -2.8805    0.5287    5.5195  256.0207
  9.800   -2.3817    0.6917   -2.3791    0.6924   -2.3802    0.6922   -2.3822    0.6919   -2.3805    0.6920   -2.3788    0.6922   93.9127  256.3514
  9.900   -1.8861    1.2717   -1.8833    1.2735   -1.8844    1.2729   -1.8867    1.2723   -1.8847    1.2726   -1.8828    1.2730  660.3947  259.1828
 10.000   -2.5265    2.3756   -2.5252    2.3788   -2.5258    2.3777   -2.5281    2.3757   -2.5259    2.3772   -2.5238    2.3787 1930.1894  261.8428
