# GW Macroscopic dielectric function without local field effects 
# Scissor operator energy =  0.8000 [eV]
# nstates included in the diagonalization = 384
# npweps  = 51
# npwwfn  = 169
# nbands  = 8
# loband  = 2
# nkibz   = 2
# nkbz    = 32
# Lorentzian broadening =  0.1000 [eV]
# List of q-points for the optical limit:
# q =  0.938821, 0.000000, 0.000000, [Reduced coords] 
# q =  0.000000, 0.938821, 0.000000, [Reduced coords] 
# q =  0.000000, 0.000000, 0.938821, [Reduced coords] 
# q =  0.000000, 0.813043, 0.813043, [Reduced coords] 
# q =  0.813043, 0.000000, 0.813043, [Reduced coords] 
# q =  0.813043, 0.813043, 0.000000, [Reduced coords] 
# omega [eV]    RE(eps(q=1)) IM(eps(q=1) RE(eps(q=2) ) ... DOS   IDOS
  0.000   19.6703    0.0000   19.6703    0.0000   19.6703    0.0000   19.6703    0.0000   19.6702    0.0000   19.6703    0.0000    0.0000    0.0000
  0.100   19.6816    0.0227   19.6816    0.0227   19.6816    0.0227   19.6816    0.0227   19.6816    0.0227   19.6816    0.0227    0.0000    0.0000
  0.200   19.7156    0.0456   19.7156    0.0456   19.7156    0.0456   19.7156    0.0456   19.7156    0.0456   19.7156    0.0456    0.0000    0.0000
  0.300   19.7726    0.0688   19.7726    0.0688   19.7726    0.0688   19.7726    0.0688   19.7726    0.0688   19.7726    0.0688    0.0000    0.0000
  0.400   19.8531    0.0926   19.8531    0.0926   19.8531    0.0926   19.8531    0.0926   19.8531    0.0926   19.8531    0.0926    0.0000    0.0000
  0.500   19.9577    0.1172   19.9577    0.1172   19.9577    0.1172   19.9577    0.1172   19.9576    0.1172   19.9577    0.1172    0.0000    0.0000
  0.600   20.0872    0.1428   20.0872    0.1428   20.0872    0.1428   20.0872    0.1428   20.0872    0.1428   20.0872    0.1428    0.0000    0.0000
  0.700   20.2428    0.1696   20.2428    0.1696   20.2428    0.1696   20.2428    0.1696   20.2428    0.1696   20.2428    0.1696    0.0000    0.0000
  0.800   20.4258    0.1979   20.4258    0.1979   20.4258    0.1979   20.4259    0.1979   20.4258    0.1979   20.4258    0.1979    0.0000    0.0000
  0.900   20.6380    0.2280   20.6380    0.2280   20.6380    0.2280   20.6380    0.2280   20.6379    0.2280   20.6380    0.2280    0.0000    0.0000
  1.000   20.8812    0.2603   20.8812    0.2603   20.8812    0.2603   20.8812    0.2603   20.8811    0.2603   20.8812    0.2603    0.0000    0.0000
  1.100   21.1578    0.2953   21.1578    0.2953   21.1578    0.2953   21.1578    0.2953   21.1578    0.2953   21.1578    0.2953    0.0000    0.0000
  1.200   21.4707    0.3333   21.4707    0.3333   21.4707    0.3333   21.4707    0.3333   21.4706    0.3333   21.4707    0.3333    0.0000    0.0000
  1.300   21.8231    0.3750   21.8231    0.3750   21.8231    0.3750   21.8232    0.3750   21.8231    0.3750   21.8231    0.3750    0.0000    0.0000
  1.400   22.2192    0.4212   22.2192    0.4212   22.2192    0.4212   22.2193    0.4212   22.2192    0.4212   22.2192    0.4212    0.0000    0.0000
  1.500   22.6638    0.4727   22.6638    0.4727   22.6638    0.4727   22.6638    0.4727   22.6637    0.4727   22.6638    0.4727    0.0000    0.0000
  1.600   23.1625    0.5306   23.1625    0.5306   23.1625    0.5306   23.1625    0.5306   23.1624    0.5306   23.1625    0.5306    0.0000    0.0000
  1.700   23.7223    0.5963   23.7223    0.5963   23.7223    0.5963   23.7224    0.5963   23.7223    0.5963   23.7223    0.5963    0.0000    0.0000
  1.800   24.3519    0.6716   24.3519    0.6716   24.3519    0.6716   24.3519    0.6716   24.3518    0.6716   24.3519    0.6716    0.0000    0.0000
  1.900   25.0616    0.7588   25.0616    0.7588   25.0616    0.7588   25.0616    0.7588   25.0615    0.7588   25.0615    0.7588    0.0000    0.0000
  2.000   25.8644    0.8608   25.8644    0.8608   25.8644    0.8608   25.8644    0.8608   25.8643    0.8608   25.8644    0.8608    0.0000    0.0000
  2.100   26.7768    0.9818   26.7768    0.9818   26.7768    0.9818   26.7768    0.9818   26.7767    0.9818   26.7768    0.9818    0.0000    0.0000
  2.200   27.8196    1.1272   27.8196    1.1272   27.8196    1.1272   27.8197    1.1272   27.8196    1.1272   27.8196    1.1272    0.0000    0.0000
  2.300   29.0201    1.3049   29.0201    1.3049   29.0201    1.3049   29.0202    1.3049   29.0201    1.3049   29.0201    1.3049    0.0000    0.0000
  2.400   30.4143    1.5259   30.4143    1.5259   30.4143    1.5259   30.4144    1.5259   30.4143    1.5259   30.4143    1.5259    0.0000    0.0000
  2.500   32.0510    1.8069   32.0510    1.8069   32.0510    1.8069   32.0510    1.8069   32.0509    1.8069   32.0510    1.8069    0.0000    0.0000
  2.600   33.9979    2.1735   33.9979    2.1735   33.9979    2.1735   33.9980    2.1735   33.9979    2.1735   33.9979    2.1735    0.0000    0.0000
  2.700   36.3525    2.6668   36.3525    2.6668   36.3525    2.6668   36.3526    2.6668   36.3524    2.6668   36.3525    2.6668    0.0000    0.0000
  2.800   39.2597    3.3570   39.2597    3.3570   39.2597    3.3570   39.2597    3.3570   39.2596    3.3570   39.2596    3.3570    0.0000    0.0000
  2.900   42.9449    4.3713   42.9449    4.3713   42.9449    4.3713   42.9450    4.3713   42.9448    4.3713   42.9449    4.3713    0.0000    0.0000
  3.000   47.7776    5.9605   47.7776    5.9605   47.7776    5.9605   47.7777    5.9605   47.7775    5.9605   47.7775    5.9605    0.0001    0.0000
  3.100   54.3973    8.6759   54.3973    8.6759   54.3973    8.6759   54.3975    8.6759   54.3972    8.6759   54.3973    8.6759    0.0080    0.0000
  3.200   63.9620   13.9134   63.9620   13.9134   63.9620   13.9134   63.9621   13.9134   63.9618   13.9133   63.9619   13.9134    0.3242    0.0012
  3.300   78.3931   25.9410   78.3931   25.9410   78.3931   25.9410   78.3934   25.9411   78.3930   25.9409   78.3931   25.9410    4.8252    0.0190
  3.400   96.3603   60.5052   96.3603   60.5052   96.3603   60.5052   96.3606   60.5055   96.3601   60.5050   96.3602   60.5051   26.4164    0.1160
  3.500   54.9859  140.1845   54.9859  140.1845   54.9859  140.1845   54.9860  140.1851   54.9858  140.1841   54.9859  140.1842   53.2027    0.3115
  3.600  -40.8078   90.0325  -40.8078   90.0325  -40.8078   90.0325  -40.8081   90.0329  -40.8076   90.0323  -40.8076   90.0324   39.4185    0.4564
  3.700  -29.1836   36.8351  -29.1836   36.8351  -29.1836   36.8351  -29.1839   36.8352  -29.1834   36.8350  -29.1834   36.8350   10.7442    0.4959
  3.800  -10.4854   20.0268  -10.4854   20.0268  -10.4854   20.0268  -10.4856   20.0268  -10.4853   20.0267  -10.4853   20.0267    1.0773    0.4999
  3.900    3.8270   14.3454    3.8270   14.3454    3.8270   14.3454    3.8268   14.3454    3.8271   14.3454    3.8271   14.3454    0.0397    0.5000
  4.000   16.1070   13.0624   16.1070   13.0624   16.1070   13.0624   16.1068   13.0624   16.1070   13.0624   16.1071   13.0624    0.0008    0.5000
  4.100   28.6437   14.8380   28.6437   14.8380   28.6437   14.8380   28.6436   14.8380   28.6438   14.8380   28.6438   14.8380    0.0252    0.5001
  4.200   43.7819   20.9348   43.7819   20.9348   43.7819   20.9348   43.7817   20.9348   43.7819   20.9348   43.7820   20.9348    0.8520    0.5032
  4.300   64.3670   37.5002   64.3670   37.5002   64.3670   37.5002   64.3668   37.5002   64.3670   37.5002   64.3671   37.5003   10.5881    0.5421
  4.400   85.1406   88.4330   85.1406   88.4330   85.1406   88.4330   85.1404   88.4329   85.1406   88.4330   85.1407   88.4331   48.4031    0.7200
  4.500    4.2582  177.3383    4.2582  177.3383    4.2582  177.3383    4.2581  177.3381    4.2582  177.3383    4.2583  177.3385   81.4023    1.0192
  4.600  -83.3656   92.3614  -83.3656   92.3614  -83.3656   92.3614  -83.3656   92.3613  -83.3656   92.3614  -83.3657   92.3615   50.3629    1.2042
  4.700  -62.8073   39.8588  -62.8073   39.8588  -62.8073   39.8588  -62.8073   39.8587  -62.8073   39.8588  -62.8073   39.8588   11.5187    1.2466
  4.800  -40.5761   24.3850  -40.5761   24.3850  -40.5761   24.3850  -40.5761   24.3850  -40.5761   24.3850  -40.5761   24.3850    2.6272    1.2562
  4.900  -22.6671   23.1038  -22.6671   23.1038  -22.6671   23.1038  -22.6671   23.1038  -22.6670   23.1038  -22.6670   23.1039   18.2269    1.3232
  5.000   -9.8383   38.0100   -9.8383   38.0100   -9.8383   38.0100   -9.8383   38.0099   -9.8383   38.0100   -9.8383   38.0101   73.0583    1.5917
  5.100  -37.0625   59.4898  -37.0625   59.4898  -37.0625   59.4898  -37.0625   59.4897  -37.0625   59.4897  -37.0626   59.4899  107.9026    1.9882
  5.200  -53.8688   28.6306  -53.8688   28.6306  -53.8688   28.6306  -53.8688   28.6306  -53.8688   28.6306  -53.8689   28.6307   58.6276    2.2037
  5.300  -44.2983   13.3104  -44.2983   13.3104  -44.2983   13.3104  -44.2983   13.3104  -44.2983   13.3104  -44.2984   13.3105   11.7187    2.2467
  5.400  -36.1703    7.8549  -36.1703    7.8549  -36.1703    7.8549  -36.1702    7.8549  -36.1702    7.8549  -36.1703    7.8549    0.8629    2.2499
  5.500  -30.3203    5.4603  -30.3203    5.4603  -30.3203    5.4603  -30.3203    5.4603  -30.3203    5.4603  -30.3203    5.4603    0.1067    2.2503
  5.600  -25.8387    4.3359  -25.8387    4.3359  -25.8387    4.3359  -25.8387    4.3359  -25.8387    4.3359  -25.8387    4.3359    2.0682    2.2579
  5.700  -22.1264    4.1308  -22.1264    4.1308  -22.1264    4.1308  -22.1264    4.1308  -22.1264    4.1308  -22.1264    4.1308   18.8580    2.3272
  5.800  -19.4053    5.5112  -19.4053    5.5112  -19.4053    5.5112  -19.4052    5.5112  -19.4052    5.5112  -19.4053    5.5112   63.2627    2.5597
  5.900  -20.8201    6.3344  -20.8201    6.3344  -20.8201    6.3344  -20.8201    6.3344  -20.8201    6.3344  -20.8201    6.3344   78.0737    2.8466
  6.000  -20.0848    3.4373  -20.0848    3.4373  -20.0848    3.4373  -20.0848    3.4373  -20.0848    3.4373  -20.0848    3.4373   35.4460    2.9769
  6.100  -18.0118    2.1876  -18.0118    2.1876  -18.0118    2.1876  -18.0118    2.1876  -18.0118    2.1876  -18.0118    2.1876    5.9202    2.9986
  6.200  -16.2712    1.6526  -16.2712    1.6526  -16.2712    1.6526  -16.2712    1.6526  -16.2712    1.6526  -16.2712    1.6526    0.3638    3.0000
  6.300  -14.8322    1.3597  -14.8322    1.3597  -14.8322    1.3597  -14.8322    1.3597  -14.8322    1.3597  -14.8322    1.3597    0.0109    3.0000
  6.400  -13.6002    1.1785  -13.6002    1.1785  -13.6002    1.1785  -13.6002    1.1785  -13.6001    1.1785  -13.6002    1.1785    0.1180    3.0004
  6.500  -12.5095    1.0760  -12.5095    1.0760  -12.5095    1.0760  -12.5095    1.0760  -12.5095    1.0760  -12.5095    1.0760    1.9359    3.0076
  6.600  -11.5240    1.0853  -11.5240    1.0853  -11.5240    1.0853  -11.5240    1.0853  -11.5240    1.0853  -11.5240    1.0853   11.6883    3.0505
  6.700  -10.8190    1.3052  -10.8190    1.3052  -10.8190    1.3052  -10.8190    1.3052  -10.8190    1.3052  -10.8190    1.3052   25.9608    3.1459
  6.800  -10.4924    1.0946  -10.4924    1.0946  -10.4924    1.0946  -10.4924    1.0946  -10.4924    1.0946  -10.4924    1.0946   21.2124    3.2239
  6.900   -9.7903    0.8049   -9.7903    0.8049   -9.7903    0.8049   -9.7903    0.8049   -9.7903    0.8049   -9.7903    0.8049    6.3763    3.2473
  7.000   -9.0947    0.6837   -9.0947    0.6837   -9.0947    0.6837   -9.0947    0.6837   -9.0947    0.6837   -9.0947    0.6837    0.7055    3.2499
  7.100   -8.4593    0.6229   -8.4593    0.6229   -8.4593    0.6229   -8.4593    0.6229   -8.4593    0.6229   -8.4593    0.6229    0.0636    3.2501
  7.200   -7.8648    0.5965   -7.8648    0.5965   -7.8648    0.5965   -7.8648    0.5965   -7.8648    0.5965   -7.8648    0.5966    1.0862    3.2541
  7.300   -7.2918    0.6166   -7.2918    0.6166   -7.2918    0.6166   -7.2918    0.6166   -7.2918    0.6166   -7.2918    0.6166   12.4378    3.2998
  7.400   -6.7566    0.7612   -6.7566    0.7612   -6.7566    0.7612   -6.7566    0.7612   -6.7565    0.7612   -6.7566    0.7612   52.4166    3.4925
  7.500   -6.5968    0.9898   -6.5968    0.9898   -6.5968    0.9898   -6.5968    0.9898   -6.5968    0.9898   -6.5968    0.9898   81.2644    3.7911
  7.600   -6.3893    0.6917   -6.3893    0.6917   -6.3893    0.6917   -6.3893    0.6917   -6.3893    0.6917   -6.3893    0.6917   46.3487    3.9614
  7.700   -5.9004    0.5334   -5.9004    0.5334   -5.9004    0.5334   -5.9004    0.5334   -5.9004    0.5334   -5.9004    0.5334    9.7248    3.9972
  7.800   -5.4209    0.4834   -5.4209    0.4834   -5.4209    0.4834   -5.4209    0.4834   -5.4209    0.4834   -5.4209    0.4834    0.7509    3.9999
  7.900   -4.9553    0.4747   -4.9553    0.4747   -4.9553    0.4747   -4.9553    0.4747   -4.9553    0.4747   -4.9553    0.4747    0.0413    4.0001
  8.000   -4.4840    0.4957   -4.4840    0.4957   -4.4840    0.4957   -4.4840    0.4957   -4.4840    0.4957   -4.4840    0.4957    0.6820    4.0026
  8.100   -3.9830    0.5588   -3.9830    0.5588   -3.9830    0.5588   -3.9830    0.5588   -3.9830    0.5588   -3.9831    0.5588    8.9195    4.0354
  8.200   -3.4255    0.7193   -3.4255    0.7193   -3.4255    0.7193   -3.4255    0.7193   -3.4255    0.7193   -3.4255    0.7193   45.9799    4.2043
  8.300   -2.8943    1.1658   -2.8943    1.1658   -2.8943    1.1658   -2.8943    1.1658   -2.8943    1.1657   -2.8943    1.1658   96.6248    4.5594
  8.400   -2.9963    1.5264   -2.9963    1.5264   -2.9963    1.5264   -2.9963    1.5264   -2.9963    1.5263   -2.9963    1.5263   86.0993    4.8758
  8.500   -2.4767    1.2880   -2.4767    1.2880   -2.4767    1.2880   -2.4767    1.2881   -2.4766    1.2880   -2.4767    1.2880   47.7920    5.0515
  8.600   -1.4743    1.7200   -1.4743    1.7200   -1.4743    1.7200   -1.4743    1.7200   -1.4743    1.7200   -1.4743    1.7200   79.9773    5.3454
  8.700   -0.6400    2.9485   -0.6400    2.9485   -0.6400    2.9485   -0.6400    2.9485   -0.6399    2.9485   -0.6400    2.9485  158.7426    5.9287
  8.800   -0.3620    5.5905   -0.3620    5.5905   -0.3620    5.5905   -0.3620    5.5905   -0.3620    5.5905   -0.3620    5.5905  192.1727    6.6350
  8.900   -4.1727    7.0240   -4.1727    7.0240   -4.1727    7.0240   -4.1727    7.0240   -4.1727    7.0240   -4.1727    7.0240  155.4012    7.2061
  9.000   -5.2336    6.0628   -5.2336    6.0628   -5.2336    6.0628   -5.2336    6.0628   -5.2336    6.0628   -5.2336    6.0628  114.9839    7.6286
  9.100   -7.7331    4.4253   -7.7331    4.4253   -7.7331    4.4253   -7.7332    4.4253   -7.7331    4.4253   -7.7331    4.4253   74.3177    7.9017
  9.200   -7.0646    1.9704   -7.0646    1.9704   -7.0646    1.9704   -7.0646    1.9705   -7.0646    1.9704   -7.0646    1.9704   23.6773    7.9887
  9.300   -6.0016    1.1005   -6.0016    1.1005   -6.0016    1.1005   -6.0016    1.1005   -6.0016    1.1005   -6.0016    1.1005    2.9287    7.9995
  9.400   -5.2067    0.7533   -5.2067    0.7533   -5.2067    0.7533   -5.2067    0.7533   -5.2067    0.7533   -5.2067    0.7533    0.1344    8.0000
  9.500   -4.5862    0.5936   -4.5862    0.5936   -4.5862    0.5936   -4.5862    0.5936   -4.5862    0.5936   -4.5862    0.5936    0.0023    8.0000
  9.600   -4.0573    0.5239   -4.0573    0.5239   -4.0573    0.5239   -4.0573    0.5239   -4.0573    0.5239   -4.0573    0.5239    0.0000    8.0000
  9.700   -3.5633    0.5164   -3.5633    0.5164   -3.5633    0.5164   -3.5633    0.5164   -3.5633    0.5164   -3.5633    0.5164    0.0027    8.0000
  9.800   -3.0543    0.5800   -3.0543    0.5800   -3.0543    0.5800   -3.0543    0.5800   -3.0542    0.5800   -3.0542    0.5800    0.1527    8.0005
  9.900   -2.4701    0.7781   -2.4701    0.7781   -2.4701    0.7781   -2.4701    0.7781   -2.4701    0.7781   -2.4701    0.7781    3.2036    8.0143
 10.000   -1.7596    1.3534   -1.7596    1.3534   -1.7596    1.3534   -1.7596    1.3534   -1.7596    1.3534   -1.7596    1.3534   24.7469    8.0484
