# GW Macroscopic dielectric function without local field effects 
# Scissor operator energy =  5.2000 [eV]
# Tolerance =  0.0200 0.0000
# npweps  = 27
# npwwfn  = 331
# nbands  = 7
# loband  = 2
# nkibz   = 3
# nkbz    = 8
# Lorentzian broadening =  0.1500 [eV]
# List of q-points for the optical limit:
# q =  0.707858, 0.000000, 0.000000, [Reduced coords] 
# q =  0.000000, 0.707858, 0.000000, [Reduced coords] 
# q =  0.000000, 0.000000, 0.707858, [Reduced coords] 
# q =  0.000000, 0.613023, 0.613023, [Reduced coords] 
# q =  0.613023, 0.000000, 0.613023, [Reduced coords] 
# q =  0.613023, 0.613023, 0.000000, [Reduced coords] 
# omega [eV]    RE(eps(q=1)) IM(eps(q=1) RE(eps(q=2) ) ... DOS   IDOS
  0.000    1.6221    0.0000    1.6221    0.0000    1.6223    0.0000    1.6223    0.0000    1.6222    0.0000    1.6221    0.0000    0.0000    0.0000
  0.100    1.6222    0.0001    1.6221    0.0001    1.6224    0.0001    1.6224    0.0001    1.6222    0.0001    1.6221    0.0001    0.0000    0.0000
  0.200    1.6222    0.0001    1.6222    0.0001    1.6224    0.0001    1.6224    0.0001    1.6223    0.0001    1.6222    0.0001    0.0000    0.0000
  0.300    1.6223    0.0002    1.6223    0.0002    1.6226    0.0002    1.6225    0.0002    1.6224    0.0002    1.6223    0.0002    0.0000    0.0000
  0.400    1.6225    0.0003    1.6225    0.0003    1.6227    0.0003    1.6227    0.0003    1.6226    0.0003    1.6225    0.0003    0.0000    0.0000
  0.500    1.6227    0.0004    1.6227    0.0004    1.6229    0.0004    1.6229    0.0004    1.6228    0.0004    1.6227    0.0004    0.0000    0.0000
  0.600    1.6230    0.0004    1.6230    0.0004    1.6232    0.0004    1.6232    0.0004    1.6230    0.0004    1.6230    0.0004    0.0000    0.0000
  0.700    1.6233    0.0005    1.6233    0.0005    1.6235    0.0005    1.6235    0.0005    1.6234    0.0005    1.6233    0.0005    0.0000    0.0000
  0.800    1.6237    0.0006    1.6236    0.0006    1.6239    0.0006    1.6239    0.0006    1.6237    0.0006    1.6236    0.0006    0.0000    0.0000
  0.900    1.6241    0.0006    1.6240    0.0006    1.6243    0.0006    1.6243    0.0006    1.6241    0.0006    1.6240    0.0006    0.0000    0.0000
  1.000    1.6245    0.0007    1.6245    0.0007    1.6247    0.0007    1.6247    0.0007    1.6246    0.0007    1.6245    0.0007    0.0000    0.0000
  1.100    1.6250    0.0008    1.6250    0.0008    1.6252    0.0008    1.6252    0.0008    1.6251    0.0008    1.6250    0.0008    0.0000    0.0000
  1.200    1.6256    0.0009    1.6256    0.0009    1.6258    0.0009    1.6258    0.0009    1.6256    0.0009    1.6256    0.0009    0.0000    0.0000
  1.300    1.6262    0.0009    1.6262    0.0009    1.6264    0.0009    1.6264    0.0009    1.6262    0.0009    1.6262    0.0009    0.0000    0.0000
  1.400    1.6268    0.0010    1.6268    0.0010    1.6270    0.0010    1.6270    0.0010    1.6269    0.0010    1.6268    0.0010    0.0000    0.0000
  1.500    1.6275    0.0011    1.6275    0.0011    1.6278    0.0011    1.6278    0.0011    1.6276    0.0011    1.6275    0.0011    0.0000    0.0000
  1.600    1.6283    0.0012    1.6283    0.0012    1.6285    0.0012    1.6285    0.0012    1.6283    0.0012    1.6283    0.0012    0.0000    0.0000
  1.700    1.6291    0.0012    1.6291    0.0012    1.6293    0.0012    1.6293    0.0012    1.6292    0.0012    1.6291    0.0012    0.0000    0.0000
  1.800    1.6300    0.0013    1.6299    0.0013    1.6302    0.0013    1.6302    0.0013    1.6300    0.0013    1.6299    0.0013    0.0000    0.0000
  1.900    1.6309    0.0014    1.6308    0.0014    1.6311    0.0014    1.6311    0.0014    1.6309    0.0014    1.6308    0.0014    0.0000    0.0000
  2.000    1.6318    0.0015    1.6318    0.0015    1.6320    0.0015    1.6320    0.0015    1.6319    0.0015    1.6318    0.0015    0.0000    0.0000
  2.100    1.6328    0.0016    1.6328    0.0016    1.6330    0.0016    1.6330    0.0016    1.6329    0.0016    1.6328    0.0016    0.0000    0.0000
  2.200    1.6339    0.0016    1.6339    0.0016    1.6341    0.0016    1.6341    0.0016    1.6340    0.0016    1.6339    0.0016    0.0000    0.0000
  2.300    1.6350    0.0017    1.6350    0.0017    1.6352    0.0017    1.6352    0.0017    1.6351    0.0017    1.6350    0.0017    0.0000    0.0000
  2.400    1.6362    0.0018    1.6362    0.0018    1.6364    0.0018    1.6364    0.0018    1.6362    0.0018    1.6362    0.0018    0.0000    0.0000
  2.500    1.6374    0.0019    1.6374    0.0019    1.6376    0.0019    1.6376    0.0019    1.6375    0.0019    1.6374    0.0019    0.0000    0.0000
  2.600    1.6387    0.0020    1.6387    0.0020    1.6389    0.0020    1.6389    0.0020    1.6388    0.0020    1.6387    0.0020    0.0000    0.0000
  2.700    1.6401    0.0021    1.6400    0.0021    1.6403    0.0021    1.6403    0.0021    1.6401    0.0021    1.6400    0.0021    0.0000    0.0000
  2.800    1.6414    0.0021    1.6414    0.0021    1.6417    0.0021    1.6417    0.0021    1.6415    0.0021    1.6414    0.0021    0.0000    0.0000
  2.900    1.6429    0.0022    1.6429    0.0022    1.6431    0.0022    1.6431    0.0022    1.6430    0.0022    1.6429    0.0022    0.0000    0.0000
  3.000    1.6444    0.0023    1.6444    0.0023    1.6446    0.0023    1.6446    0.0023    1.6445    0.0023    1.6444    0.0023    0.0000    0.0000
  3.100    1.6460    0.0024    1.6460    0.0024    1.6462    0.0024    1.6462    0.0024    1.6460    0.0024    1.6460    0.0024    0.0000    0.0000
  3.200    1.6476    0.0025    1.6476    0.0025    1.6478    0.0025    1.6478    0.0025    1.6477    0.0025    1.6476    0.0025    0.0000    0.0000
  3.300    1.6493    0.0026    1.6493    0.0026    1.6495    0.0026    1.6495    0.0026    1.6494    0.0026    1.6493    0.0026    0.0000    0.0000
  3.400    1.6511    0.0027    1.6510    0.0027    1.6513    0.0027    1.6513    0.0027    1.6511    0.0027    1.6510    0.0027    0.0000    0.0000
  3.500    1.6529    0.0028    1.6529    0.0028    1.6531    0.0028    1.6531    0.0028    1.6529    0.0028    1.6529    0.0028    0.0000    0.0000
  3.600    1.6548    0.0029    1.6548    0.0029    1.6550    0.0029    1.6550    0.0029    1.6548    0.0029    1.6548    0.0029    0.0000    0.0000
  3.700    1.6567    0.0030    1.6567    0.0030    1.6569    0.0030    1.6569    0.0030    1.6568    0.0030    1.6567    0.0030    0.0000    0.0000
  3.800    1.6587    0.0031    1.6587    0.0031    1.6589    0.0031    1.6589    0.0031    1.6588    0.0031    1.6587    0.0031    0.0000    0.0000
  3.900    1.6608    0.0032    1.6608    0.0032    1.6610    0.0032    1.6610    0.0032    1.6609    0.0032    1.6608    0.0032    0.0000    0.0000
  4.000    1.6630    0.0033    1.6629    0.0033    1.6632    0.0033    1.6632    0.0033    1.6630    0.0033    1.6629    0.0033    0.0000    0.0000
  4.100    1.6652    0.0034    1.6652    0.0034    1.6654    0.0034    1.6654    0.0034    1.6652    0.0034    1.6652    0.0034    0.0000    0.0000
  4.200    1.6675    0.0035    1.6675    0.0035    1.6677    0.0035    1.6677    0.0035    1.6675    0.0035    1.6675    0.0035    0.0000    0.0000
  4.300    1.6698    0.0036    1.6698    0.0036    1.6701    0.0036    1.6701    0.0036    1.6699    0.0036    1.6698    0.0036    0.0000    0.0000
  4.400    1.6723    0.0037    1.6723    0.0037    1.6725    0.0037    1.6725    0.0037    1.6723    0.0037    1.6723    0.0037    0.0000    0.0000
  4.500    1.6748    0.0038    1.6748    0.0038    1.6750    0.0038    1.6750    0.0038    1.6749    0.0038    1.6748    0.0038    0.0000    0.0000
  4.600    1.6774    0.0040    1.6774    0.0040    1.6776    0.0040    1.6776    0.0040    1.6774    0.0040    1.6774    0.0040    0.0000    0.0000
  4.700    1.6801    0.0041    1.6800    0.0041    1.6803    0.0041    1.6803    0.0041    1.6801    0.0041    1.6800    0.0041    0.0000    0.0000
  4.800    1.6828    0.0042    1.6828    0.0042    1.6830    0.0042    1.6830    0.0042    1.6829    0.0042    1.6828    0.0042    0.0000    0.0000
  4.900    1.6857    0.0043    1.6856    0.0043    1.6859    0.0043    1.6859    0.0043    1.6857    0.0043    1.6856    0.0043    0.0000    0.0000
  5.000    1.6886    0.0044    1.6886    0.0044    1.6888    0.0044    1.6888    0.0044    1.6886    0.0044    1.6886    0.0044    0.0000    0.0000
  5.100    1.6916    0.0046    1.6916    0.0046    1.6918    0.0046    1.6918    0.0046    1.6916    0.0046    1.6916    0.0046    0.0000    0.0000
  5.200    1.6947    0.0047    1.6947    0.0047    1.6949    0.0047    1.6949    0.0047    1.6947    0.0047    1.6947    0.0047    0.0000    0.0000
  5.300    1.6979    0.0049    1.6978    0.0049    1.6981    0.0049    1.6981    0.0049    1.6979    0.0049    1.6978    0.0049    0.0000    0.0000
  5.400    1.7011    0.0050    1.7011    0.0050    1.7014    0.0050    1.7014    0.0050    1.7012    0.0050    1.7011    0.0050    0.0000    0.0000
  5.500    1.7045    0.0051    1.7045    0.0051    1.7047    0.0051    1.7047    0.0051    1.7046    0.0051    1.7045    0.0051    0.0000    0.0000
  5.600    1.7080    0.0053    1.7080    0.0053    1.7082    0.0053    1.7082    0.0053    1.7080    0.0053    1.7080    0.0053    0.0000    0.0000
  5.700    1.7116    0.0054    1.7115    0.0054    1.7118    0.0054    1.7118    0.0054    1.7116    0.0054    1.7115    0.0054    0.0000    0.0000
  5.800    1.7152    0.0056    1.7152    0.0056    1.7155    0.0056    1.7155    0.0056    1.7153    0.0056    1.7152    0.0056    0.0000    0.0000
  5.900    1.7190    0.0058    1.7190    0.0058    1.7192    0.0058    1.7192    0.0058    1.7191    0.0058    1.7190    0.0058    0.0000    0.0000
  6.000    1.7229    0.0059    1.7229    0.0059    1.7231    0.0059    1.7231    0.0059    1.7230    0.0059    1.7229    0.0059    0.0000    0.0000
  6.100    1.7269    0.0061    1.7269    0.0061    1.7271    0.0061    1.7271    0.0061    1.7270    0.0061    1.7269    0.0061    0.0000    0.0000
  6.200    1.7310    0.0063    1.7310    0.0063    1.7313    0.0063    1.7313    0.0063    1.7311    0.0063    1.7310    0.0063    0.0000    0.0000
  6.300    1.7353    0.0065    1.7353    0.0065    1.7355    0.0065    1.7355    0.0065    1.7353    0.0065    1.7353    0.0065    0.0000    0.0000
  6.400    1.7396    0.0066    1.7396    0.0066    1.7399    0.0066    1.7399    0.0066    1.7397    0.0066    1.7396    0.0066    0.0000    0.0000
  6.500    1.7441    0.0068    1.7441    0.0068    1.7443    0.0068    1.7443    0.0068    1.7442    0.0068    1.7441    0.0068    0.0000    0.0000
  6.600    1.7488    0.0070    1.7487    0.0070    1.7490    0.0070    1.7490    0.0070    1.7488    0.0070    1.7487    0.0070    0.0000    0.0000
  6.700    1.7535    0.0072    1.7535    0.0072    1.7537    0.0072    1.7537    0.0072    1.7536    0.0072    1.7535    0.0072    0.0000    0.0000
  6.800    1.7584    0.0075    1.7584    0.0075    1.7586    0.0075    1.7586    0.0075    1.7585    0.0075    1.7584    0.0075    0.0000    0.0000
  6.900    1.7634    0.0077    1.7634    0.0077    1.7637    0.0077    1.7636    0.0077    1.7635    0.0077    1.7634    0.0077    0.0000    0.0000
  7.000    1.7686    0.0079    1.7686    0.0079    1.7688    0.0079    1.7688    0.0079    1.7687    0.0079    1.7686    0.0079    0.0000    0.0000
  7.100    1.7740    0.0081    1.7739    0.0081    1.7742    0.0081    1.7742    0.0081    1.7740    0.0081    1.7739    0.0081    0.0000    0.0000
  7.200    1.7795    0.0084    1.7794    0.0084    1.7797    0.0084    1.7797    0.0084    1.7795    0.0084    1.7794    0.0084    0.0000    0.0000
  7.300    1.7851    0.0086    1.7851    0.0086    1.7853    0.0086    1.7853    0.0086    1.7852    0.0086    1.7851    0.0086    0.0000    0.0000
  7.400    1.7909    0.0089    1.7909    0.0089    1.7912    0.0089    1.7912    0.0089    1.7910    0.0089    1.7909    0.0089    0.0000    0.0000
  7.500    1.7969    0.0092    1.7969    0.0092    1.7972    0.0092    1.7972    0.0092    1.7970    0.0092    1.7969    0.0092    0.0000    0.0000
  7.600    1.8031    0.0094    1.8031    0.0094    1.8034    0.0094    1.8033    0.0094    1.8032    0.0094    1.8031    0.0094    0.0000    0.0000
  7.700    1.8095    0.0097    1.8095    0.0097    1.8097    0.0097    1.8097    0.0097    1.8096    0.0097    1.8095    0.0097    0.0000    0.0000
  7.800    1.8161    0.0100    1.8161    0.0100    1.8163    0.0100    1.8163    0.0100    1.8161    0.0100    1.8161    0.0100    0.0000    0.0000
  7.900    1.8229    0.0103    1.8228    0.0103    1.8231    0.0103    1.8231    0.0103    1.8229    0.0103    1.8228    0.0103    0.0000    0.0000
  8.000    1.8299    0.0107    1.8298    0.0107    1.8301    0.0107    1.8301    0.0107    1.8299    0.0107    1.8298    0.0107    0.0000    0.0000
  8.100    1.8371    0.0110    1.8371    0.0110    1.8373    0.0110    1.8373    0.0110    1.8371    0.0110    1.8371    0.0110    0.0000    0.0000
  8.200    1.8445    0.0114    1.8445    0.0114    1.8447    0.0114    1.8447    0.0114    1.8446    0.0114    1.8445    0.0114    0.0000    0.0000
  8.300    1.8522    0.0117    1.8522    0.0117    1.8524    0.0117    1.8524    0.0117    1.8523    0.0117    1.8522    0.0117    0.0000    0.0000
  8.400    1.8601    0.0121    1.8601    0.0121    1.8604    0.0121    1.8604    0.0121    1.8602    0.0121    1.8601    0.0121    0.0000    0.0000
  8.500    1.8683    0.0125    1.8683    0.0125    1.8686    0.0125    1.8685    0.0125    1.8684    0.0125    1.8683    0.0125    0.0000    0.0000
  8.600    1.8768    0.0129    1.8768    0.0129    1.8770    0.0129    1.8770    0.0129    1.8769    0.0129    1.8768    0.0129    0.0000    0.0000
  8.700    1.8856    0.0134    1.8855    0.0134    1.8858    0.0134    1.8858    0.0134    1.8856    0.0134    1.8855    0.0134    0.0000    0.0000
  8.800    1.8946    0.0138    1.8946    0.0138    1.8948    0.0138    1.8948    0.0138    1.8947    0.0138    1.8946    0.0138    0.0000    0.0000
  8.900    1.9040    0.0143    1.9040    0.0143    1.9042    0.0143    1.9042    0.0143    1.9040    0.0143    1.9040    0.0143    0.0000    0.0000
  9.000    1.9137    0.0148    1.9137    0.0148    1.9139    0.0148    1.9139    0.0148    1.9137    0.0148    1.9137    0.0148    0.0000    0.0000
  9.100    1.9237    0.0154    1.9237    0.0154    1.9239    0.0154    1.9239    0.0154    1.9238    0.0154    1.9237    0.0154    0.0000    0.0000
  9.200    1.9341    0.0159    1.9341    0.0159    1.9343    0.0159    1.9343    0.0159    1.9342    0.0159    1.9341    0.0159    0.0000    0.0000
  9.300    1.9449    0.0165    1.9449    0.0165    1.9451    0.0165    1.9451    0.0165    1.9450    0.0165    1.9449    0.0165    0.0000    0.0000
  9.400    1.9561    0.0171    1.9561    0.0171    1.9563    0.0171    1.9563    0.0171    1.9562    0.0171    1.9561    0.0171    0.0000    0.0000
  9.500    1.9677    0.0178    1.9677    0.0178    1.9679    0.0178    1.9679    0.0178    1.9678    0.0178    1.9677    0.0178    0.0000    0.0000
  9.600    1.9798    0.0185    1.9797    0.0185    1.9800    0.0185    1.9800    0.0185    1.9798    0.0185    1.9797    0.0185    0.0000    0.0000
  9.700    1.9923    0.0192    1.9923    0.0192    1.9925    0.0192    1.9925    0.0192    1.9923    0.0192    1.9923    0.0192    0.0000    0.0000
  9.800    2.0053    0.0200    2.0053    0.0200    2.0055    0.0200    2.0055    0.0200    2.0054    0.0200    2.0053    0.0200    0.0000    0.0000
  9.900    2.0189    0.0208    2.0188    0.0208    2.0191    0.0208    2.0191    0.0208    2.0189    0.0208    2.0188    0.0208    0.0000    0.0000
 10.000    2.0330    0.0216    2.0330    0.0216    2.0332    0.0216    2.0332    0.0216    2.0330    0.0216    2.0330    0.0216    0.0000    0.0000
 10.100    2.0477    0.0226    2.0477    0.0226    2.0479    0.0226    2.0479    0.0226    2.0477    0.0226    2.0477    0.0226    0.0000    0.0000
 10.200    2.0630    0.0235    2.0630    0.0235    2.0632    0.0235    2.0632    0.0235    2.0631    0.0235    2.0630    0.0235    0.0000    0.0000
 10.300    2.0790    0.0246    2.0790    0.0246    2.0792    0.0246    2.0792    0.0246    2.0791    0.0246    2.0790    0.0246    0.0000    0.0000
 10.400    2.0958    0.0257    2.0957    0.0257    2.0960    0.0257    2.0960    0.0257    2.0958    0.0257    2.0957    0.0257    0.0000    0.0000
 10.500    2.1132    0.0269    2.1132    0.0269    2.1135    0.0269    2.1135    0.0269    2.1133    0.0269    2.1132    0.0269    0.0000    0.0000
 10.600    2.1316    0.0282    2.1315    0.0282    2.1318    0.0282    2.1318    0.0282    2.1316    0.0282    2.1315    0.0282    0.0000    0.0000
 10.700    2.1508    0.0296    2.1507    0.0296    2.1510    0.0296    2.1510    0.0296    2.1508    0.0296    2.1507    0.0296    0.0000    0.0000
 10.800    2.1709    0.0311    2.1709    0.0311    2.1711    0.0311    2.1711    0.0311    2.1710    0.0311    2.1709    0.0311    0.0000    0.0000
 10.900    2.1921    0.0327    2.1921    0.0327    2.1923    0.0327    2.1923    0.0327    2.1921    0.0327    2.1921    0.0327    0.0000    0.0000
 11.000    2.2144    0.0344    2.2144    0.0344    2.2146    0.0344    2.2146    0.0344    2.2144    0.0344    2.2144    0.0344    0.0000    0.0000
 11.100    2.2379    0.0363    2.2378    0.0363    2.2381    0.0363    2.2381    0.0363    2.2379    0.0363    2.2378    0.0363    0.0000    0.0000
 11.200    2.2626    0.0383    2.2626    0.0383    2.2629    0.0383    2.2629    0.0383    2.2627    0.0383    2.2626    0.0383    0.0000    0.0000
 11.300    2.2888    0.0406    2.2888    0.0406    2.2891    0.0406    2.2891    0.0406    2.2889    0.0406    2.2888    0.0406    0.0000    0.0000
 11.400    2.3166    0.0430    2.3166    0.0430    2.3168    0.0430    2.3168    0.0430    2.3166    0.0430    2.3166    0.0430    0.0000    0.0000
 11.500    2.3460    0.0457    2.3460    0.0457    2.3463    0.0457    2.3463    0.0457    2.3461    0.0457    2.3460    0.0457    0.0000    0.0000
 11.600    2.3774    0.0487    2.3773    0.0487    2.3776    0.0487    2.3776    0.0487    2.3774    0.0487    2.3773    0.0487    0.0000    0.0000
 11.700    2.4108    0.0520    2.4107    0.0520    2.4110    0.0520    2.4110    0.0520    2.4108    0.0520    2.4107    0.0520    0.0000    0.0000
 11.800    2.4464    0.0557    2.4464    0.0557    2.4467    0.0557    2.4467    0.0557    2.4465    0.0557    2.4464    0.0557    0.0000    0.0000
 11.900    2.4847    0.0598    2.4847    0.0598    2.4849    0.0598    2.4849    0.0598    2.4848    0.0598    2.4847    0.0598    0.0000    0.0000
 12.000    2.5258    0.0645    2.5258    0.0645    2.5261    0.0645    2.5261    0.0645    2.5259    0.0645    2.5258    0.0645    0.0000    0.0000
 12.100    2.5702    0.0698    2.5702    0.0698    2.5704    0.0698    2.5704    0.0698    2.5703    0.0698    2.5702    0.0698    0.0000    0.0000
 12.200    2.6183    0.0758    2.6182    0.0758    2.6185    0.0758    2.6185    0.0758    2.6183    0.0758    2.6182    0.0758    0.0000    0.0000
 12.300    2.6705    0.0827    2.6705    0.0827    2.6707    0.0827    2.6707    0.0827    2.6706    0.0827    2.6705    0.0827    0.0000    0.0000
 12.400    2.7276    0.0907    2.7276    0.0907    2.7279    0.0907    2.7279    0.0907    2.7277    0.0907    2.7276    0.0907    0.0000    0.0000
 12.500    2.7904    0.1002    2.7904    0.1002    2.7906    0.1002    2.7906    0.1002    2.7905    0.1002    2.7904    0.1002    0.0000    0.0000
 12.600    2.8598    0.1114    2.8598    0.1114    2.8600    0.1114    2.8600    0.1114    2.8599    0.1114    2.8598    0.1114    0.0000    0.0000
 12.700    2.9371    0.1248    2.9371    0.1248    2.9373    0.1248    2.9373    0.1248    2.9371    0.1248    2.9371    0.1248    0.0000    0.0000
 12.800    3.0239    0.1413    3.0238    0.1413    3.0241    0.1413    3.0241    0.1413    3.0239    0.1413    3.0238    0.1413    0.0000    0.0000
 12.900    3.1222    0.1618    3.1222    0.1618    3.1225    0.1618    3.1225    0.1618    3.1223    0.1618    3.1222    0.1618    0.0000    0.0000
 13.000    3.2350    0.1878    3.2350    0.1878    3.2353    0.1878    3.2353    0.1878    3.2351    0.1878    3.2350    0.1878    0.0000    0.0000
 13.100    3.3661    0.2216    3.3661    0.2216    3.3663    0.2216    3.3663    0.2216    3.3662    0.2216    3.3661    0.2216    0.0000    0.0000
 13.200    3.5209    0.2672    3.5208    0.2672    3.5211    0.2672    3.5211    0.2672    3.5209    0.2672    3.5208    0.2672    0.0000    0.0000
 13.300    3.7071    0.3306    3.7071    0.3306    3.7073    0.3306    3.7073    0.3306    3.7071    0.3306    3.7071    0.3306    0.0003    0.0000
 13.400    3.9363    0.4233    3.9362    0.4233    3.9365    0.4233    3.9365    0.4233    3.9363    0.4233    3.9362    0.4233    0.0056    0.0000
 13.500    4.2255    0.5668    4.2255    0.5668    4.2257    0.5668    4.2257    0.5668    4.2256    0.5668    4.2255    0.5668    0.0703    0.0003
 13.600    4.5998    0.8059    4.5998    0.8059    4.6000    0.8059    4.6000    0.8059    4.5998    0.8059    4.5998    0.8059    0.5620    0.0023
 13.700    5.0875    1.2435    5.0874    1.2435    5.0877    1.2435    5.0877    1.2435    5.0875    1.2435    5.0874    1.2435    2.8807    0.0129
 13.800    5.6635    2.1344    5.6635    2.1344    5.6638    2.1344    5.6638    2.1344    5.6636    2.1344    5.6635    2.1344    9.4670    0.0477
 13.900    5.8497    4.0208    5.8497    4.0208    5.8499    4.0208    5.8499    4.0208    5.8497    4.0208    5.8497    4.0208   19.9483    0.1210
 14.000    3.5936    6.3531    3.5936    6.3531    3.5939    6.3531    3.5939    6.3531    3.5937    6.3531    3.5936    6.3531   26.9512    0.2201
 14.100    0.2794    4.9917    0.2793    4.9917    0.2796    4.9917    0.2796    4.9917    0.2794    4.9917    0.2793    4.9917   23.3469    0.3059
 14.200   -0.0614    2.7026   -0.0614    2.7026   -0.0611    2.7026   -0.0611    2.7026   -0.0613    2.7026   -0.0614    2.7026   12.9677    0.3535
 14.300    0.5265    1.5624    0.5265    1.5624    0.5267    1.5624    0.5267    1.5624    0.5266    1.5624    0.5265    1.5624    4.6182    0.3705
 14.400    1.1157    1.0374    1.1157    1.0374    1.1160    1.0374    1.1160    1.0374    1.1158    1.0374    1.1157    1.0374    1.0545    0.3744
 14.500    1.6081    0.7798    1.6081    0.7798    1.6084    0.7798    1.6084    0.7798    1.6082    0.7798    1.6081    0.7798    0.1544    0.3749
 14.600    2.0293    0.6504    2.0292    0.6504    2.0295    0.6504    2.0295    0.6504    2.0293    0.6504    2.0292    0.6504    0.0145    0.3750
 14.700    2.4108    0.5920    2.4108    0.5920    2.4110    0.5920    2.4110    0.5920    2.4108    0.5920    2.4108    0.5920    0.0009    0.3750
 14.800    2.7782    0.5802    2.7782    0.5802    2.7785    0.5802    2.7785    0.5802    2.7783    0.5802    2.7782    0.5802    0.0000    0.3750
 14.900    3.1529    0.6060    3.1529    0.6060    3.1531    0.6060    3.1531    0.6060    3.1529    0.6060    3.1529    0.6060    0.0000    0.3750
 15.000    3.5551    0.6692    3.5550    0.6692    3.5553    0.6692    3.5553    0.6692    3.5551    0.6692    3.5550    0.6692    0.0000    0.3750
 15.100    4.0073    0.7777    4.0073    0.7777    4.0076    0.7777    4.0076    0.7777    4.0074    0.7777    4.0073    0.7777    0.0000    0.3750
 15.200    4.5381    0.9495    4.5381    0.9495    4.5383    0.9495    4.5383    0.9495    4.5381    0.9495    4.5381    0.9495    0.0012    0.3750
 15.300    5.1866    1.2204    5.1865    1.2204    5.1868    1.2204    5.1868    1.2204    5.1866    1.2204    5.1865    1.2204    0.0220    0.3751
 15.400    6.0095    1.6622    6.0095    1.6622    6.0097    1.6622    6.0097    1.6622    6.0096    1.6622    6.0095    1.6622    0.2575    0.3760
 15.500    7.0871    2.4279    7.0871    2.4279    7.0873    2.4279    7.0873    2.4279    7.0871    2.4279    7.0871    2.4279    1.9346    0.3831
 15.600    8.5018    3.8747    8.5018    3.8747    8.5021    3.8747    8.5021    3.8747    8.5019    3.8747    8.5018    3.8747    9.3180    0.4174
 15.700   10.1040    6.8920   10.1039    6.8920   10.1042    6.8920   10.1042    6.8920   10.1040    6.8920   10.1039    6.8920   28.7772    0.5231
 15.800    9.9507   13.2068    9.9506   13.2068    9.9509   13.2068    9.9509   13.2068    9.9507   13.2068    9.9506   13.2068   56.9839    0.7326
 15.900    1.3667   19.4808    1.3667   19.4808    1.3670   19.4808    1.3670   19.4808    1.3668   19.4808    1.3667   19.4808   72.3496    0.9984
 16.000   -7.9260   13.8147   -7.9261   13.8147   -7.9258   13.8147   -7.9258   13.8147   -7.9260   13.8147   -7.9261   13.8147   58.8980    1.2149
 16.100   -8.4408    7.2093   -8.4409    7.2093   -8.4406    7.2093   -8.4406    7.2093   -8.4408    7.2093   -8.4409    7.2093   30.7429    1.3279
 16.200   -6.8702    4.0045   -6.8703    4.0045   -6.8700    4.0045   -6.8700    4.0045   -6.8702    4.0045   -6.8703    4.0045   10.2889    1.3657
 16.300   -5.4482    2.4721   -5.4482    2.4721   -5.4480    2.4721   -5.4480    2.4721   -5.4481    2.4721   -5.4482    2.4721    2.2079    1.3738
 16.400   -4.3729    1.6612   -4.3729    1.6612   -4.3726    1.6612   -4.3726    1.6612   -4.3728    1.6612   -4.3729    1.6612    0.3038    1.3749
 16.500   -3.5664    1.1895   -3.5664    1.1895   -3.5661    1.1895   -3.5661    1.1895   -3.5663    1.1895   -3.5664    1.1895    0.0268    1.3750
 16.600   -2.9482    0.8936   -2.9482    0.8936   -2.9480    0.8936   -2.9480    0.8936   -2.9482    0.8936   -2.9482    0.8936    0.0015    1.3750
 16.700   -2.4620    0.6969   -2.4620    0.6969   -2.4618    0.6969   -2.4618    0.6969   -2.4619    0.6969   -2.4620    0.6969    0.0001    1.3750
 16.800   -2.0701    0.5601   -2.0701    0.5601   -2.0699    0.5601   -2.0699    0.5601   -2.0700    0.5601   -2.0701    0.5601    0.0000    1.3750
 16.900   -1.7473    0.4614   -1.7473    0.4614   -1.7470    0.4614   -1.7470    0.4614   -1.7472    0.4614   -1.7473    0.4614    0.0000    1.3750
 17.000   -1.4761    0.3882   -1.4761    0.3882   -1.4758    0.3882   -1.4758    0.3882   -1.4760    0.3882   -1.4761    0.3882    0.0000    1.3750
 17.100   -1.2442    0.3330   -1.2442    0.3330   -1.2440    0.3330   -1.2440    0.3330   -1.2442    0.3330   -1.2442    0.3330    0.0000    1.3750
 17.200   -1.0427    0.2907   -1.0427    0.2907   -1.0425    0.2907   -1.0425    0.2907   -1.0427    0.2907   -1.0427    0.2907    0.0000    1.3750
 17.300   -0.8647    0.2585   -0.8647    0.2585   -0.8645    0.2585   -0.8645    0.2585   -0.8646    0.2585   -0.8647    0.2585    0.0000    1.3750
 17.400   -0.7048    0.2345   -0.7048    0.2345   -0.7045    0.2345   -0.7045    0.2345   -0.7047    0.2345   -0.7048    0.2345    0.0005    1.3750
 17.500   -0.5583    0.2181   -0.5583    0.2181   -0.5581    0.2181   -0.5581    0.2181   -0.5582    0.2181   -0.5583    0.2181    0.0099    1.3750
 17.600   -0.4211    0.2100   -0.4211    0.2100   -0.4208    0.2100   -0.4208    0.2100   -0.4210    0.2100   -0.4211    0.2100    0.1177    1.3755
 17.700   -0.2888    0.2131   -0.2888    0.2131   -0.2885    0.2131   -0.2885    0.2131   -0.2887    0.2131   -0.2888    0.2131    0.8999    1.3788
 17.800   -0.1575    0.2358   -0.1575    0.2358   -0.1572    0.2358   -0.1572    0.2358   -0.1574    0.2358   -0.1575    0.2358    4.4123    1.3950
 17.900   -0.0290    0.2997   -0.0290    0.2997   -0.0288    0.2997   -0.0288    0.2997   -0.0290    0.2997   -0.0290    0.2997   13.8712    1.4460
 18.000    0.0513    0.4490    0.0513    0.4490    0.0515    0.4490    0.0515    0.4490    0.0513    0.4490    0.0513    0.4490   27.9608    1.5487
 18.100   -0.0865    0.6100   -0.0866    0.6100   -0.0863    0.6100   -0.0863    0.6100   -0.0865    0.6100   -0.0866    0.6100   36.1380    1.6815
 18.200   -0.2674    0.4657   -0.2675    0.4657   -0.2672    0.4657   -0.2672    0.4657   -0.2674    0.4657   -0.2675    0.4657   29.9474    1.7916
 18.300   -0.2223    0.2847   -0.2223    0.2847   -0.2220    0.2847   -0.2220    0.2847   -0.2222    0.2847   -0.2223    0.2847   15.9123    1.8501
 18.400   -0.1220    0.1936   -0.1220    0.1936   -0.1218    0.1936   -0.1218    0.1936   -0.1220    0.1936   -0.1220    0.1936    5.4211    1.8700
 18.500   -0.0284    0.1480   -0.0284    0.1480   -0.0281    0.1480   -0.0281    0.1480   -0.0283    0.1480   -0.0284    0.1480    1.1842    1.8743
 18.600    0.0533    0.1222    0.0533    0.1222    0.0535    0.1222    0.0535    0.1222    0.0533    0.1222    0.0533    0.1222    0.1659    1.8749
 18.700    0.1253    0.1061    0.1252    0.1061    0.1255    0.1061    0.1255    0.1061    0.1253    0.1061    0.1252    0.1061    0.0149    1.8750
 18.800    0.1901    0.0951    0.1900    0.0951    0.1903    0.0951    0.1903    0.0951    0.1901    0.0951    0.1900    0.0951    0.0009    1.8750
 18.900    0.2494    0.0872    0.2494    0.0872    0.2497    0.0872    0.2497    0.0872    0.2495    0.0872    0.2494    0.0872    0.0000    1.8750
 19.000    0.3046    0.0813    0.3046    0.0813    0.3049    0.0813    0.3049    0.0813    0.3047    0.0813    0.3046    0.0813    0.0000    1.8750
 19.100    0.3566    0.0767    0.3566    0.0767    0.3569    0.0767    0.3569    0.0767    0.3567    0.0767    0.3566    0.0767    0.0000    1.8750
 19.200    0.4061    0.0732    0.4060    0.0732    0.4063    0.0732    0.4063    0.0732    0.4061    0.0732    0.4060    0.0732    0.0000    1.8750
 19.300    0.4536    0.0705    0.4535    0.0705    0.4538    0.0705    0.4538    0.0705    0.4536    0.0705    0.4535    0.0705    0.0000    1.8750
 19.400    0.4995    0.0684    0.4995    0.0684    0.4998    0.0684    0.4998    0.0684    0.4996    0.0684    0.4995    0.0684    0.0000    1.8750
 19.500    0.5443    0.0669    0.5443    0.0669    0.5446    0.0669    0.5446    0.0669    0.5444    0.0669    0.5443    0.0669    0.0000    1.8750
 19.600    0.5884    0.0660    0.5883    0.0660    0.5886    0.0660    0.5886    0.0660    0.5884    0.0660    0.5883    0.0660    0.0000    1.8750
 19.700    0.6319    0.0655    0.6319    0.0655    0.6322    0.0655    0.6322    0.0655    0.6320    0.0655    0.6319    0.0655    0.0000    1.8750
 19.800    0.6753    0.0655    0.6753    0.0655    0.6756    0.0655    0.6756    0.0655    0.6754    0.0655    0.6753    0.0655    0.0000    1.8750
 19.900    0.7189    0.0660    0.7188    0.0660    0.7191    0.0660    0.7191    0.0660    0.7189    0.0660    0.7188    0.0660    0.0007    1.8750
 20.000    0.7629    0.0669    0.7628    0.0669    0.7631    0.0669    0.7631    0.0669    0.7629    0.0669    0.7628    0.0669    0.0135    1.8751
 20.100    0.8077    0.0684    0.8077    0.0684    0.8079    0.0684    0.8079    0.0684    0.8077    0.0684    0.8077    0.0684    0.1634    1.8757
 20.200    0.8536    0.0705    0.8536    0.0705    0.8539    0.0705    0.8539    0.0705    0.8537    0.0705    0.8536    0.0705    1.2683    1.8803
 20.300    0.9012    0.0733    0.9012    0.0733    0.9014    0.0733    0.9014    0.0733    0.9012    0.0733    0.9012    0.0733    6.3140    1.9035
 20.400    0.9507    0.0768    0.9507    0.0768    0.9510    0.0768    0.9510    0.0768    0.9508    0.0768    0.9507    0.0768   20.1543    1.9776
 20.500    1.0029    0.0812    1.0028    0.0812    1.0031    0.0812    1.0031    0.0812    1.0029    0.0812    1.0028    0.0812   41.2486    2.1292
 20.600    1.0582    0.0867    1.0582    0.0867    1.0584    0.0867    1.0584    0.0867    1.0582    0.0867    1.0582    0.0867   54.1292    2.3281
 20.700    1.1175    0.0936    1.1174    0.0936    1.1177    0.0936    1.1177    0.0936    1.1175    0.0936    1.1174    0.0936   45.5443    2.4955
 20.800    1.1816    0.1021    1.1816    0.1021    1.1819    0.1021    1.1819    0.1021    1.1817    0.1021    1.1816    0.1021   24.5707    2.5858
 20.900    1.2519    0.1127    1.2519    0.1127    1.2522    0.1127    1.2522    0.1127    1.2520    0.1127    1.2519    0.1127    8.4992    2.6170
 21.000    1.3298    0.1261    1.3297    0.1261    1.3300    0.1261    1.3300    0.1261    1.3298    0.1261    1.3297    0.1261    1.8851    2.6239
 21.100    1.4171    0.1432    1.4171    0.1432    1.4174    0.1432    1.4174    0.1432    1.4172    0.1432    1.4171    0.1432    0.2684    2.6249
 21.200    1.5166    0.1651    1.5166    0.1651    1.5169    0.1651    1.5169    0.1651    1.5167    0.1651    1.5166    0.1651    0.0316    2.6250
 21.300    1.6317    0.1940    1.6316    0.1940    1.6319    0.1940    1.6319    0.1940    1.6317    0.1940    1.6317    0.1940    0.1017    2.6254
 21.400    1.7671    0.2328    1.7671    0.2328    1.7674    0.2328    1.7674    0.2328    1.7672    0.2328    1.7671    0.2328    0.9016    2.6287
 21.500    1.9297    0.2864    1.9297    0.2864    1.9299    0.2864    1.9299    0.2864    1.9298    0.2864    1.9297    0.2864    5.1994    2.6478
 21.600    2.1293    0.3632    2.1293    0.3632    2.1296    0.3632    2.1296    0.3632    2.1294    0.3632    2.1293    0.3632   19.2263    2.7185
 21.700    2.3807    0.4779    2.3807    0.4779    2.3810    0.4779    2.3810    0.4779    2.3808    0.4779    2.3807    0.4779   45.5944    2.8860
 21.800    2.7060    0.6591    2.7060    0.6591    2.7063    0.6591    2.7063    0.6591    2.7061    0.6591    2.7060    0.6591   69.4451    3.1412
 21.900    3.1373    0.9666    3.1372    0.9666    3.1375    0.9666    3.1375    0.9666    3.1373    0.9666    3.1372    0.9666   68.7435    3.3939
 22.000    3.7103    1.5381    3.7103    1.5381    3.7106    1.5381    3.7106    1.5381    3.7104    1.5381    3.7103    1.5381   48.3169    3.5714
 22.100    4.3851    2.7153    4.3851    2.7153    4.3854    2.7153    4.3854    2.7153    4.3852    2.7153    4.3851    2.7153   36.9437    3.7072
 22.200    4.4928    5.2111    4.4928    5.2111    4.4931    5.2111    4.4931    5.2111    4.4929    5.2111    4.4928    5.2111   47.3695    3.8813
 22.300    1.3136    8.1486    1.3136    8.1486    1.3138    8.1486    1.3138    8.1486    1.3136    8.1486    1.3136    8.1486   63.0787    4.1131
 22.400   -2.9842    6.1955   -2.9842    6.1955   -2.9840    6.1955   -2.9840    6.1955   -2.9842    6.1955   -2.9842    6.1955   64.7325    4.3510
 22.500   -3.4491    3.2500   -3.4491    3.2500   -3.4488    3.2500   -3.4488    3.2500   -3.4490    3.2500   -3.4491    3.2500   51.7797    4.5413
 22.600   -2.8068    1.7840   -2.8068    1.7840   -2.8065    1.7840   -2.8065    1.7840   -2.8067    1.7840   -2.8068    1.7840   33.2174    4.6633
 22.700   -2.1938    1.0890   -2.1938    1.0890   -2.1936    1.0890   -2.1936    1.0890   -2.1938    1.0890   -2.1938    1.0890   16.3290    4.7233
 22.800   -1.7280    0.7254   -1.7280    0.7254   -1.7277    0.7254   -1.7277    0.7254   -1.7279    0.7254   -1.7280    0.7254    5.6959    4.7443
 22.900   -1.3794    0.5157   -1.3794    0.5157   -1.3791    0.5157   -1.3791    0.5157   -1.3793    0.5157   -1.3794    0.5157    1.3347    4.7492
 23.000   -1.1132    0.3851   -1.1133    0.3851   -1.1130    0.3851   -1.1130    0.3851   -1.1132    0.3851   -1.1133    0.3851    0.2044    4.7499
 23.100   -0.9048    0.2987   -0.9048    0.2987   -0.9045    0.2987   -0.9045    0.2987   -0.9047    0.2987   -0.9048    0.2987    0.0202    4.7500
 23.200   -0.7376    0.2387   -0.7376    0.2387   -0.7373    0.2387   -0.7373    0.2387   -0.7375    0.2387   -0.7376    0.2387    0.0013    4.7500
 23.300   -0.6006    0.1953   -0.6007    0.1953   -0.6004    0.1953   -0.6004    0.1953   -0.6006    0.1953   -0.6007    0.1953    0.0002    4.7500
 23.400   -0.4863    0.1630   -0.4864    0.1630   -0.4861    0.1630   -0.4861    0.1630   -0.4863    0.1630   -0.4864    0.1630    0.0032    4.7500
 23.500   -0.3895    0.1384   -0.3895    0.1383   -0.3892    0.1384   -0.3892    0.1384   -0.3894    0.1384   -0.3895    0.1383    0.0456    4.7502
 23.600   -0.3062    0.1190   -0.3063    0.1190   -0.3060    0.1190   -0.3060    0.1190   -0.3062    0.1190   -0.3063    0.1190    0.4200    4.7517
 23.700   -0.2339    0.1037   -0.2339    0.1037   -0.2336    0.1037   -0.2336    0.1037   -0.2338    0.1037   -0.2339    0.1037    2.4928    4.7605
 23.800   -0.1704    0.0912   -0.1704    0.0912   -0.1701    0.0912   -0.1701    0.0912   -0.1703    0.0912   -0.1704    0.0912    9.6165    4.8017
 23.900   -0.1141    0.0810   -0.1141    0.0810   -0.1138    0.0810   -0.1138    0.0810   -0.1140    0.0810   -0.1141    0.0810   24.4935    4.8355
