# GW Macroscopic dielectric function without local field effects 
# Scissor operator energy =  5.2000 [eV]
# Tolerance =  0.0200 0.0000
# npweps  = 27
# npwwfn  = 307
# nbands  = 7
# loband  = 2
# nkibz   = 3
# nkbz    = 8
# Lorentzian broadening =  0.1500 [eV]
# List of q-points for the optical limit:
# q =  0.707858, 0.000000, 0.000000, [Reduced coords] 
# q =  0.000000, 0.707858, 0.000000, [Reduced coords] 
# q =  0.000000, 0.000000, 0.707858, [Reduced coords] 
# q =  0.000000, 0.613023, 0.613023, [Reduced coords] 
# q =  0.613023, 0.000000, 0.613023, [Reduced coords] 
# q =  0.613023, 0.613023, 0.000000, [Reduced coords] 
# omega [eV]    RE(eps(q=1)) IM(eps(q=1) RE(eps(q=2) ) ... DOS   IDOS
  0.000    1.6222    0.0000    1.6222   -0.0000    1.6224    0.0000    1.6224   -0.0000    1.6223   -0.0000    1.6222    0.0000    0.0000    0.0000
  0.100    1.6222    0.0001    1.6222    0.0001    1.6224    0.0001    1.6224    0.0001    1.6223    0.0001    1.6222    0.0001    0.0000    0.0000
  0.200    1.6223    0.0001    1.6223    0.0001    1.6225    0.0001    1.6225    0.0001    1.6224    0.0001    1.6223    0.0001    0.0000    0.0000
  0.300    1.6224    0.0002    1.6224    0.0002    1.6226    0.0002    1.6226    0.0002    1.6225    0.0002    1.6224    0.0002    0.0000    0.0000
  0.400    1.6226    0.0003    1.6226    0.0003    1.6228    0.0003    1.6228    0.0003    1.6226    0.0003    1.6226    0.0003    0.0000    0.0000
  0.500    1.6228    0.0004    1.6228    0.0004    1.6230    0.0004    1.6230    0.0004    1.6229    0.0004    1.6228    0.0004    0.0000    0.0000
  0.600    1.6231    0.0004    1.6231    0.0004    1.6233    0.0004    1.6233    0.0004    1.6231    0.0004    1.6231    0.0004    0.0000    0.0000
  0.700    1.6234    0.0005    1.6234    0.0005    1.6236    0.0005    1.6236    0.0005    1.6234    0.0005    1.6234    0.0005    0.0000    0.0000
  0.800    1.6237    0.0006    1.6237    0.0006    1.6239    0.0006    1.6239    0.0006    1.6238    0.0006    1.6237    0.0006    0.0000    0.0000
  0.900    1.6242    0.0006    1.6241    0.0006    1.6244    0.0006    1.6244    0.0006    1.6242    0.0006    1.6241    0.0006    0.0000    0.0000
  1.000    1.6246    0.0007    1.6246    0.0007    1.6248    0.0007    1.6248    0.0007    1.6247    0.0007    1.6246    0.0007    0.0000    0.0000
  1.100    1.6251    0.0008    1.6251    0.0008    1.6253    0.0008    1.6253    0.0008    1.6252    0.0008    1.6251    0.0008    0.0000    0.0000
  1.200    1.6257    0.0009    1.6256    0.0009    1.6259    0.0009    1.6259    0.0009    1.6257    0.0009    1.6256    0.0009    0.0000    0.0000
  1.300    1.6263    0.0009    1.6262    0.0009    1.6265    0.0009    1.6265    0.0009    1.6263    0.0009    1.6263    0.0009    0.0000    0.0000
  1.400    1.6269    0.0010    1.6269    0.0010    1.6271    0.0010    1.6271    0.0010    1.6270    0.0010    1.6269    0.0010    0.0000    0.0000
  1.500    1.6276    0.0011    1.6276    0.0011    1.6278    0.0011    1.6278    0.0011    1.6277    0.0011    1.6276    0.0011    0.0000    0.0000
  1.600    1.6284    0.0012    1.6284    0.0012    1.6286    0.0012    1.6286    0.0012    1.6284    0.0012    1.6284    0.0012    0.0000    0.0000
  1.700    1.6292    0.0012    1.6292    0.0012    1.6294    0.0012    1.6294    0.0012    1.6292    0.0012    1.6292    0.0012    0.0000    0.0000
  1.800    1.6300    0.0013    1.6300    0.0013    1.6302    0.0013    1.6302    0.0013    1.6301    0.0013    1.6300    0.0013    0.0000    0.0000
  1.900    1.6310    0.0014    1.6309    0.0014    1.6312    0.0014    1.6312    0.0014    1.6310    0.0014    1.6309    0.0014    0.0000    0.0000
  2.000    1.6319    0.0015    1.6319    0.0015    1.6321    0.0015    1.6321    0.0015    1.6320    0.0015    1.6319    0.0015    0.0000    0.0000
  2.100    1.6329    0.0016    1.6329    0.0016    1.6331    0.0016    1.6331    0.0016    1.6330    0.0016    1.6329    0.0016    0.0000    0.0000
  2.200    1.6340    0.0016    1.6340    0.0016    1.6342    0.0016    1.6342    0.0016    1.6340    0.0016    1.6340    0.0016    0.0000    0.0000
  2.300    1.6351    0.0017    1.6351    0.0017    1.6353    0.0017    1.6353    0.0017    1.6352    0.0017    1.6351    0.0017    0.0000    0.0000
  2.400    1.6363    0.0018    1.6363    0.0018    1.6365    0.0018    1.6365    0.0018    1.6363    0.0018    1.6363    0.0018    0.0000    0.0000
  2.500    1.6375    0.0019    1.6375    0.0019    1.6377    0.0019    1.6377    0.0019    1.6376    0.0019    1.6375    0.0019    0.0000    0.0000
  2.600    1.6388    0.0020    1.6388    0.0020    1.6390    0.0020    1.6390    0.0020    1.6388    0.0020    1.6388    0.0020    0.0000    0.0000
  2.700    1.6401    0.0021    1.6401    0.0021    1.6403    0.0021    1.6403    0.0021    1.6402    0.0021    1.6401    0.0021    0.0000    0.0000
  2.800    1.6415    0.0021    1.6415    0.0021    1.6417    0.0021    1.6417    0.0021    1.6416    0.0021    1.6415    0.0021    0.0000    0.0000
  2.900    1.6430    0.0022    1.6430    0.0022    1.6432    0.0022    1.6432    0.0022    1.6430    0.0022    1.6430    0.0022    0.0000    0.0000
  3.000    1.6445    0.0023    1.6445    0.0023    1.6447    0.0023    1.6447    0.0023    1.6445    0.0023    1.6445    0.0023    0.0000    0.0000
  3.100    1.6461    0.0024    1.6460    0.0024    1.6463    0.0024    1.6463    0.0024    1.6461    0.0024    1.6460    0.0024    0.0000    0.0000
  3.200    1.6477    0.0025    1.6477    0.0025    1.6479    0.0025    1.6479    0.0025    1.6477    0.0025    1.6477    0.0025    0.0000    0.0000
  3.300    1.6494    0.0026    1.6494    0.0026    1.6496    0.0026    1.6496    0.0026    1.6494    0.0026    1.6494    0.0026    0.0000    0.0000
  3.400    1.6511    0.0027    1.6511    0.0027    1.6514    0.0027    1.6514    0.0027    1.6512    0.0027    1.6511    0.0027    0.0000    0.0000
  3.500    1.6530    0.0028    1.6529    0.0028    1.6532    0.0028    1.6532    0.0028    1.6530    0.0028    1.6529    0.0028    0.0000    0.0000
  3.600    1.6548    0.0029    1.6548    0.0029    1.6551    0.0029    1.6551    0.0029    1.6549    0.0029    1.6548    0.0029    0.0000    0.0000
  3.700    1.6568    0.0030    1.6568    0.0030    1.6570    0.0030    1.6570    0.0030    1.6568    0.0030    1.6568    0.0030    0.0000    0.0000
  3.800    1.6588    0.0031    1.6588    0.0031    1.6590    0.0031    1.6590    0.0031    1.6589    0.0031    1.6588    0.0031    0.0000    0.0000
  3.900    1.6609    0.0032    1.6609    0.0032    1.6611    0.0032    1.6611    0.0032    1.6609    0.0032    1.6609    0.0032    0.0000    0.0000
  4.000    1.6630    0.0033    1.6630    0.0033    1.6633    0.0033    1.6632    0.0033    1.6631    0.0033    1.6630    0.0033    0.0000    0.0000
  4.100    1.6653    0.0034    1.6652    0.0034    1.6655    0.0034    1.6655    0.0034    1.6653    0.0034    1.6652    0.0034    0.0000    0.0000
  4.200    1.6676    0.0035    1.6675    0.0035    1.6678    0.0035    1.6678    0.0035    1.6676    0.0035    1.6675    0.0035    0.0000    0.0000
  4.300    1.6699    0.0036    1.6699    0.0036    1.6701    0.0036    1.6701    0.0036    1.6700    0.0036    1.6699    0.0036    0.0000    0.0000
  4.400    1.6724    0.0037    1.6723    0.0037    1.6726    0.0037    1.6726    0.0037    1.6724    0.0037    1.6723    0.0037    0.0000    0.0000
  4.500    1.6749    0.0038    1.6749    0.0038    1.6751    0.0038    1.6751    0.0038    1.6749    0.0038    1.6749    0.0038    0.0000    0.0000
  4.600    1.6775    0.0039    1.6774    0.0039    1.6777    0.0039    1.6777    0.0039    1.6775    0.0039    1.6774    0.0039    0.0000    0.0000
  4.700    1.6801    0.0041    1.6801    0.0041    1.6803    0.0041    1.6803    0.0041    1.6802    0.0041    1.6801    0.0041    0.0000    0.0000
  4.800    1.6829    0.0042    1.6829    0.0042    1.6831    0.0042    1.6831    0.0042    1.6829    0.0042    1.6829    0.0042    0.0000    0.0000
  4.900    1.6857    0.0043    1.6857    0.0043    1.6859    0.0043    1.6859    0.0043    1.6858    0.0043    1.6857    0.0043    0.0000    0.0000
  5.000    1.6886    0.0044    1.6886    0.0044    1.6889    0.0044    1.6889    0.0044    1.6887    0.0044    1.6886    0.0044    0.0000    0.0000
  5.100    1.6917    0.0046    1.6916    0.0046    1.6919    0.0046    1.6919    0.0046    1.6917    0.0046    1.6916    0.0046    0.0000    0.0000
  5.200    1.6947    0.0047    1.6947    0.0047    1.6950    0.0047    1.6950    0.0047    1.6948    0.0047    1.6947    0.0047    0.0000    0.0000
  5.300    1.6979    0.0049    1.6979    0.0049    1.6981    0.0049    1.6981    0.0049    1.6980    0.0049    1.6979    0.0049    0.0000    0.0000
  5.400    1.7012    0.0050    1.7012    0.0050    1.7014    0.0050    1.7014    0.0050    1.7013    0.0050    1.7012    0.0050    0.0000    0.0000
  5.500    1.7046    0.0051    1.7046    0.0051    1.7048    0.0051    1.7048    0.0051    1.7046    0.0051    1.7046    0.0051    0.0000    0.0000
  5.600    1.7081    0.0053    1.7080    0.0053    1.7083    0.0053    1.7083    0.0053    1.7081    0.0053    1.7080    0.0053    0.0000    0.0000
  5.700    1.7116    0.0054    1.7116    0.0054    1.7118    0.0054    1.7118    0.0054    1.7117    0.0054    1.7116    0.0054    0.0000    0.0000
  5.800    1.7153    0.0056    1.7153    0.0056    1.7155    0.0056    1.7155    0.0056    1.7154    0.0056    1.7153    0.0056    0.0000    0.0000
  5.900    1.7191    0.0058    1.7191    0.0058    1.7193    0.0058    1.7193    0.0058    1.7191    0.0058    1.7191    0.0058    0.0000    0.0000
  6.000    1.7230    0.0059    1.7230    0.0059    1.7232    0.0059    1.7232    0.0059    1.7230    0.0059    1.7230    0.0059    0.0000    0.0000
  6.100    1.7270    0.0061    1.7270    0.0061    1.7272    0.0061    1.7272    0.0061    1.7270    0.0061    1.7270    0.0061    0.0000    0.0000
  6.200    1.7311    0.0063    1.7311    0.0063    1.7313    0.0063    1.7313    0.0063    1.7312    0.0063    1.7311    0.0063    0.0000    0.0000
  6.300    1.7353    0.0065    1.7353    0.0065    1.7356    0.0065    1.7356    0.0065    1.7354    0.0065    1.7353    0.0065    0.0000    0.0000
  6.400    1.7397    0.0066    1.7397    0.0066    1.7399    0.0066    1.7399    0.0066    1.7398    0.0066    1.7397    0.0066    0.0000    0.0000
  6.500    1.7442    0.0068    1.7442    0.0068    1.7444    0.0068    1.7444    0.0068    1.7442    0.0068    1.7442    0.0068    0.0000    0.0000
  6.600    1.7488    0.0070    1.7488    0.0070    1.7490    0.0070    1.7490    0.0070    1.7489    0.0070    1.7488    0.0070    0.0000    0.0000
  6.700    1.7536    0.0072    1.7535    0.0072    1.7538    0.0072    1.7538    0.0072    1.7536    0.0072    1.7535    0.0072    0.0000    0.0000
  6.800    1.7585    0.0074    1.7584    0.0074    1.7587    0.0074    1.7587    0.0074    1.7585    0.0074    1.7584    0.0074    0.0000    0.0000
  6.900    1.7635    0.0077    1.7635    0.0077    1.7637    0.0077    1.7637    0.0077    1.7635    0.0077    1.7635    0.0077    0.0000    0.0000
  7.000    1.7687    0.0079    1.7686    0.0079    1.7689    0.0079    1.7689    0.0079    1.7687    0.0079    1.7687    0.0079    0.0000    0.0000
  7.100    1.7740    0.0081    1.7740    0.0081    1.7742    0.0081    1.7742    0.0081    1.7741    0.0081    1.7740    0.0081    0.0000    0.0000
  7.200    1.7795    0.0084    1.7795    0.0084    1.7797    0.0084    1.7797    0.0084    1.7795    0.0084    1.7795    0.0084    0.0000    0.0000
  7.300    1.7852    0.0086    1.7851    0.0086    1.7854    0.0086    1.7854    0.0086    1.7852    0.0086    1.7851    0.0086    0.0000    0.0000
  7.400    1.7910    0.0089    1.7910    0.0089    1.7912    0.0089    1.7912    0.0089    1.7910    0.0089    1.7910    0.0089    0.0000    0.0000
  7.500    1.7970    0.0091    1.7970    0.0091    1.7972    0.0091    1.7972    0.0091    1.7970    0.0091    1.7970    0.0091    0.0000    0.0000
  7.600    1.8032    0.0094    1.8032    0.0094    1.8034    0.0094    1.8034    0.0094    1.8032    0.0094    1.8032    0.0094    0.0000    0.0000
  7.700    1.8095    0.0097    1.8095    0.0097    1.8098    0.0097    1.8098    0.0097    1.8096    0.0097    1.8095    0.0097    0.0000    0.0000
  7.800    1.8161    0.0100    1.8161    0.0100    1.8163    0.0100    1.8163    0.0100    1.8162    0.0100    1.8161    0.0100    0.0000    0.0000
  7.900    1.8229    0.0103    1.8229    0.0103    1.8231    0.0103    1.8231    0.0103    1.8229    0.0103    1.8229    0.0103    0.0000    0.0000
  8.000    1.8299    0.0107    1.8299    0.0107    1.8301    0.0107    1.8301    0.0107    1.8299    0.0107    1.8299    0.0107    0.0000    0.0000
  8.100    1.8371    0.0110    1.8371    0.0110    1.8373    0.0110    1.8373    0.0110    1.8371    0.0110    1.8371    0.0110    0.0000    0.0000
  8.200    1.8445    0.0114    1.8445    0.0114    1.8447    0.0114    1.8447    0.0114    1.8446    0.0114    1.8445    0.0114    0.0000    0.0000
  8.300    1.8522    0.0117    1.8522    0.0117    1.8524    0.0117    1.8524    0.0117    1.8523    0.0117    1.8522    0.0117    0.0000    0.0000
  8.400    1.8601    0.0121    1.8601    0.0121    1.8604    0.0121    1.8604    0.0121    1.8602    0.0121    1.8601    0.0121    0.0000    0.0000
  8.500    1.8683    0.0125    1.8683    0.0125    1.8686    0.0125    1.8686    0.0125    1.8684    0.0125    1.8683    0.0125    0.0000    0.0000
  8.600    1.8768    0.0129    1.8768    0.0129    1.8770    0.0129    1.8770    0.0129    1.8769    0.0129    1.8768    0.0129    0.0000    0.0000
  8.700    1.8856    0.0134    1.8855    0.0134    1.8858    0.0134    1.8858    0.0134    1.8856    0.0134    1.8855    0.0134    0.0000    0.0000
  8.800    1.8946    0.0138    1.8946    0.0138    1.8948    0.0138    1.8948    0.0138    1.8947    0.0138    1.8946    0.0138    0.0000    0.0000
  8.900    1.9040    0.0143    1.9040    0.0143    1.9042    0.0143    1.9042    0.0143    1.9040    0.0143    1.9040    0.0143    0.0000    0.0000
  9.000    1.9137    0.0148    1.9136    0.0148    1.9139    0.0148    1.9139    0.0148    1.9137    0.0148    1.9136    0.0148    0.0000    0.0000
  9.100    1.9237    0.0153    1.9237    0.0153    1.9239    0.0153    1.9239    0.0153    1.9238    0.0153    1.9237    0.0153    0.0000    0.0000
  9.200    1.9341    0.0159    1.9341    0.0159    1.9343    0.0159    1.9343    0.0159    1.9341    0.0159    1.9341    0.0159    0.0000    0.0000
  9.300    1.9449    0.0165    1.9449    0.0165    1.9451    0.0165    1.9451    0.0165    1.9449    0.0165    1.9449    0.0165    0.0000    0.0000
  9.400    1.9561    0.0171    1.9560    0.0171    1.9563    0.0171    1.9563    0.0171    1.9561    0.0171    1.9560    0.0171    0.0000    0.0000
  9.500    1.9677    0.0178    1.9676    0.0178    1.9679    0.0178    1.9679    0.0178    1.9677    0.0178    1.9676    0.0178    0.0000    0.0000
  9.600    1.9797    0.0184    1.9797    0.0184    1.9799    0.0184    1.9799    0.0184    1.9798    0.0184    1.9797    0.0184    0.0000    0.0000
  9.700    1.9922    0.0192    1.9922    0.0192    1.9924    0.0192    1.9924    0.0192    1.9923    0.0192    1.9922    0.0192    0.0000    0.0000
  9.800    2.0052    0.0199    2.0052    0.0199    2.0054    0.0199    2.0054    0.0199    2.0053    0.0199    2.0052    0.0199    0.0000    0.0000
  9.900    2.0188    0.0208    2.0187    0.0208    2.0190    0.0208    2.0190    0.0208    2.0188    0.0208    2.0187    0.0208    0.0000    0.0000
 10.000    2.0329    0.0216    2.0328    0.0216    2.0331    0.0216    2.0331    0.0216    2.0329    0.0216    2.0328    0.0216    0.0000    0.0000
 10.100    2.0476    0.0225    2.0475    0.0225    2.0478    0.0225    2.0478    0.0225    2.0476    0.0225    2.0475    0.0225    0.0000    0.0000
 10.200    2.0629    0.0235    2.0629    0.0235    2.0631    0.0235    2.0631    0.0235    2.0629    0.0235    2.0629    0.0235    0.0000    0.0000
 10.300    2.0789    0.0246    2.0788    0.0246    2.0791    0.0246    2.0791    0.0246    2.0789    0.0246    2.0789    0.0246    0.0000    0.0000
 10.400    2.0956    0.0257    2.0956    0.0257    2.0958    0.0257    2.0958    0.0257    2.0956    0.0257    2.0956    0.0257    0.0000    0.0000
 10.500    2.1131    0.0269    2.1130    0.0269    2.1133    0.0269    2.1133    0.0269    2.1131    0.0269    2.1130    0.0269    0.0000    0.0000
 10.600    2.1314    0.0282    2.1313    0.0282    2.1316    0.0282    2.1316    0.0282    2.1314    0.0282    2.1313    0.0282    0.0000    0.0000
 10.700    2.1505    0.0295    2.1505    0.0295    2.1508    0.0295    2.1508    0.0295    2.1506    0.0295    2.1505    0.0295    0.0000    0.0000
 10.800    2.1707    0.0310    2.1706    0.0310    2.1709    0.0310    2.1709    0.0310    2.1707    0.0310    2.1706    0.0310    0.0000    0.0000
 10.900    2.1918    0.0326    2.1918    0.0326    2.1920    0.0326    2.1920    0.0326    2.1919    0.0326    2.1918    0.0326    0.0000    0.0000
 11.000    2.2141    0.0344    2.2140    0.0344    2.2143    0.0344    2.2143    0.0344    2.2141    0.0344    2.2140    0.0344    0.0000    0.0000
 11.100    2.2375    0.0362    2.2375    0.0362    2.2377    0.0362    2.2377    0.0362    2.2376    0.0362    2.2375    0.0362    0.0000    0.0000
 11.200    2.2623    0.0383    2.2622    0.0383    2.2625    0.0383    2.2625    0.0383    2.2623    0.0383    2.2622    0.0383    0.0000    0.0000
 11.300    2.2884    0.0405    2.2884    0.0405    2.2886    0.0405    2.2886    0.0405    2.2885    0.0405    2.2884    0.0405    0.0000    0.0000
 11.400    2.3161    0.0430    2.3161    0.0430    2.3164    0.0430    2.3164    0.0430    2.3162    0.0430    2.3161    0.0430    0.0000    0.0000
 11.500    2.3455    0.0457    2.3455    0.0457    2.3458    0.0457    2.3458    0.0457    2.3456    0.0457    2.3455    0.0457    0.0000    0.0000
 11.600    2.3768    0.0486    2.3768    0.0486    2.3770    0.0486    2.3770    0.0486    2.3769    0.0486    2.3768    0.0486    0.0000    0.0000
 11.700    2.4102    0.0519    2.4101    0.0519    2.4104    0.0519    2.4104    0.0519    2.4102    0.0519    2.4101    0.0519    0.0000    0.0000
 11.800    2.4458    0.0556    2.4458    0.0556    2.4460    0.0556    2.4460    0.0556    2.4458    0.0556    2.4458    0.0556    0.0000    0.0000
 11.900    2.4840    0.0597    2.4839    0.0597    2.4842    0.0597    2.4842    0.0597    2.4840    0.0597    2.4839    0.0597    0.0000    0.0000
 12.000    2.5250    0.0644    2.5250    0.0644    2.5252    0.0644    2.5252    0.0644    2.5251    0.0644    2.5250    0.0644    0.0000    0.0000
 12.100    2.5693    0.0696    2.5693    0.0696    2.5695    0.0696    2.5695    0.0696    2.5693    0.0696    2.5693    0.0696    0.0000    0.0000
 12.200    2.6172    0.0756    2.6172    0.0756    2.6175    0.0756    2.6175    0.0756    2.6173    0.0756    2.6172    0.0756    0.0000    0.0000
 12.300    2.6694    0.0825    2.6694    0.0825    2.6696    0.0825    2.6696    0.0825    2.6694    0.0825    2.6694    0.0825    0.0000    0.0000
 12.400    2.7264    0.0905    2.7263    0.0905    2.7266    0.0905    2.7266    0.0905    2.7264    0.0905    2.7263    0.0905    0.0000    0.0000
 12.500    2.7890    0.0999    2.7889    0.0999    2.7892    0.0999    2.7892    0.0999    2.7890    0.0999    2.7889    0.0999    0.0000    0.0000
 12.600    2.8582    0.1111    2.8582    0.1111    2.8584    0.1111    2.8584    0.1111    2.8582    0.1111    2.8582    0.1111    0.0000    0.0000
 12.700    2.9352    0.1245    2.9352    0.1245    2.9355    0.1245    2.9355    0.1245    2.9353    0.1245    2.9352    0.1245    0.0000    0.0000
 12.800    3.0218    0.1408    3.0217    0.1408    3.0220    0.1408    3.0220    0.1408    3.0218    0.1408    3.0217    0.1408    0.0000    0.0000
 12.900    3.1198    0.1612    3.1198    0.1612    3.1200    0.1612    3.1200    0.1612    3.1199    0.1612    3.1198    0.1612    0.0000    0.0000
 13.000    3.2322    0.1871    3.2322    0.1871    3.2324    0.1871    3.2324    0.1871    3.2323    0.1871    3.2322    0.1871    0.0000    0.0000
 13.100    3.3628    0.2208    3.3628    0.2208    3.3630    0.2208    3.3630    0.2208    3.3629    0.2208    3.3628    0.2208    0.0000    0.0000
 13.200    3.5170    0.2661    3.5169    0.2661    3.5172    0.2661    3.5172    0.2661    3.5170    0.2661    3.5169    0.2661    0.0000    0.0000
 13.300    3.7024    0.3292    3.7024    0.3292    3.7026    0.3292    3.7026    0.3292    3.7025    0.3292    3.7024    0.3292    0.0003    0.0000
 13.400    3.9306    0.4213    3.9305    0.4213    3.9308    0.4213    3.9308    0.4213    3.9306    0.4213    3.9305    0.4213    0.0056    0.0000
 13.500    4.2185    0.5640    4.2184    0.5640    4.2187    0.5640    4.2187    0.5640    4.2185    0.5640    4.2184    0.5640    0.0703    0.0003
 13.600    4.5909    0.8016    4.5909    0.8016    4.5911    0.8016    4.5911    0.8016    4.5910    0.8016    4.5909    0.8016    0.5620    0.0023
 13.700    5.0761    1.2366    5.0760    1.2366    5.0763    1.2366    5.0763    1.2366    5.0761    1.2366    5.0761    1.2366    2.8807    0.0129
 13.800    5.6491    2.1220    5.6491    2.1220    5.6494    2.1220    5.6494    2.1220    5.6492    2.1220    5.6491    2.1220    9.4670    0.0477
 13.900    5.8348    3.9967    5.8348    3.9967    5.8350    3.9967    5.8350    3.9967    5.8348    3.9967    5.8348    3.9967   19.9483    0.1210
 14.000    3.5935    6.3146    3.5935    6.3146    3.5937    6.3146    3.5937    6.3146    3.5935    6.3146    3.5935    6.3146   26.9512    0.2201
 14.100    0.3007    4.9619    0.3007    4.9619    0.3009    4.9619    0.3009    4.9619    0.3007    4.9619    0.3007    4.9619   23.3469    0.3059
 14.200   -0.0371    2.6872   -0.0371    2.6872   -0.0368    2.6872   -0.0368    2.6872   -0.0370    2.6872   -0.0371    2.6872   12.9677    0.3535
 14.300    0.5482    1.5542    0.5481    1.5542    0.5484    1.5542    0.5484    1.5542    0.5482    1.5542    0.5481    1.5542    4.6182    0.3705
 14.400    1.1348    1.0327    1.1348    1.0327    1.1350    1.0327    1.1350    1.0327    1.1349    1.0327    1.1348    1.0327    1.0545    0.3744
 14.500    1.6254    0.7770    1.6254    0.7770    1.6256    0.7770    1.6256    0.7770    1.6255    0.7770    1.6254    0.7770    0.1544    0.3749
 14.600    2.0454    0.6488    2.0453    0.6488    2.0456    0.6488    2.0456    0.6488    2.0454    0.6488    2.0453    0.6488    0.0145    0.3750
 14.700    2.4262    0.5911    2.4262    0.5911    2.4264    0.5911    2.4264    0.5911    2.4262    0.5911    2.4262    0.5911    0.0009    0.3750
 14.800    2.7933    0.5799    2.7933    0.5799    2.7935    0.5799    2.7935    0.5799    2.7934    0.5799    2.7933    0.5799    0.0000    0.3750
 14.900    3.1680    0.6062    3.1680    0.6062    3.1682    0.6062    3.1682    0.6062    3.1680    0.6062    3.1680    0.6062    0.0000    0.3750
 15.000    3.5705    0.6700    3.5705    0.6700    3.5707    0.6700    3.5707    0.6700    3.5705    0.6700    3.5705    0.6700    0.0000    0.3750
 15.100    4.0234    0.7790    4.0234    0.7790    4.0236    0.7790    4.0236    0.7790    4.0234    0.7790    4.0234    0.7790    0.0000    0.3750
 15.200    4.5552    0.9515    4.5552    0.9515    4.5554    0.9515    4.5554    0.9515    4.5552    0.9515    4.5552    0.9515    0.0012    0.3750
 15.300    5.2052    1.2235    5.2051    1.2235    5.2054    1.2235    5.2054    1.2235    5.2052    1.2235    5.2051    1.2235    0.0220    0.3751
 15.400    6.0303    1.6668    6.0302    1.6668    6.0305    1.6668    6.0305    1.6668    6.0303    1.6668    6.0302    1.6668    0.2575    0.3760
 15.500    7.1109    2.4351    7.1109    2.4351    7.1111    2.4351    7.1111    2.4351    7.1109    2.4351    7.1109    2.4351    1.9346    0.3831
 15.600    8.5298    3.8867    8.5298    3.8867    8.5300    3.8867    8.5300    3.8867    8.5298    3.8867    8.5298    3.8867    9.3180    0.4174
 15.700   10.1368    6.9138   10.1367    6.9138   10.1370    6.9138   10.1370    6.9138   10.1368    6.9138   10.1367    6.9138   28.7772    0.5231
 15.800    9.9826   13.2492    9.9826   13.2492    9.9828   13.2492    9.9828   13.2492    9.9827   13.2492    9.9826   13.2492   56.9839    0.7326
 15.900    1.3705   19.5436    1.3705   19.5436    1.3707   19.5436    1.3707   19.5436    1.3705   19.5436    1.3705   19.5436   72.3496    0.9984
 16.000   -7.9528   13.8592   -7.9528   13.8592   -7.9525   13.8592   -7.9525   13.8592   -7.9527   13.8592   -7.9528   13.8592   58.8980    1.2149
 16.100   -8.4695    7.2323   -8.4695    7.2323   -8.4693    7.2323   -8.4693    7.2323   -8.4695    7.2323   -8.4695    7.2323   30.7429    1.3279
 16.200   -6.8941    4.0172   -6.8941    4.0172   -6.8938    4.0172   -6.8938    4.0172   -6.8940    4.0172   -6.8941    4.0172   10.2889    1.3657
 16.300   -5.4677    2.4797   -5.4677    2.4797   -5.4674    2.4797   -5.4674    2.4797   -5.4676    2.4797   -5.4677    2.4797    2.2079    1.3738
 16.400   -4.3891    1.6662   -4.3891    1.6662   -4.3888    1.6662   -4.3888    1.6662   -4.3890    1.6662   -4.3891    1.6662    0.3038    1.3749
 16.500   -3.5802    1.1930   -3.5802    1.1930   -3.5800    1.1930   -3.5800    1.1930   -3.5801    1.1930   -3.5802    1.1930    0.0268    1.3750
 16.600   -2.9603    0.8962   -2.9603    0.8962   -2.9601    0.8962   -2.9601    0.8962   -2.9602    0.8962   -2.9603    0.8962    0.0015    1.3750
 16.700   -2.4727    0.6988   -2.4728    0.6988   -2.4725    0.6988   -2.4725    0.6988   -2.4727    0.6988   -2.4728    0.6988    0.0001    1.3750
 16.800   -2.0798    0.5615   -2.0798    0.5615   -2.0796    0.5615   -2.0796    0.5615   -2.0798    0.5615   -2.0798    0.5615    0.0000    1.3750
 16.900   -1.7562    0.4625   -1.7562    0.4625   -1.7559    0.4625   -1.7560    0.4625   -1.7561    0.4625   -1.7562    0.4625    0.0000    1.3750
 17.000   -1.4844    0.3891   -1.4844    0.3891   -1.4842    0.3891   -1.4842    0.3891   -1.4843    0.3891   -1.4844    0.3891    0.0000    1.3750
 17.100   -1.2521    0.3335   -1.2521    0.3335   -1.2519    0.3335   -1.2519    0.3335   -1.2520    0.3335   -1.2521    0.3335    0.0000    1.3750
 17.200   -1.0503    0.2911   -1.0503    0.2911   -1.0500    0.2911   -1.0500    0.2911   -1.0502    0.2911   -1.0503    0.2911    0.0000    1.3750
 17.300   -0.8721    0.2587   -0.8721    0.2587   -0.8718    0.2587   -0.8718    0.2587   -0.8720    0.2587   -0.8721    0.2587    0.0000    1.3750
 17.400   -0.7121    0.2345   -0.7121    0.2345   -0.7118    0.2345   -0.7118    0.2345   -0.7120    0.2345   -0.7121    0.2345    0.0005    1.3750
 17.500   -0.5657    0.2178   -0.5657    0.2178   -0.5654    0.2178   -0.5654    0.2178   -0.5656    0.2178   -0.5657    0.2178    0.0099    1.3750
 17.600   -0.4286    0.2093   -0.4287    0.2093   -0.4284    0.2093   -0.4284    0.2093   -0.4286    0.2093   -0.4287    0.2093    0.1177    1.3755
 17.700   -0.2968    0.2118   -0.2968    0.2118   -0.2966    0.2118   -0.2966    0.2118   -0.2967    0.2118   -0.2968    0.2118    0.8999    1.3788
 17.800   -0.1662    0.2335   -0.1662    0.2335   -0.1660    0.2335   -0.1660    0.2335   -0.1662    0.2335   -0.1662    0.2335    4.4123    1.3950
 17.900   -0.0387    0.2954   -0.0387    0.2954   -0.0384    0.2954   -0.0384    0.2954   -0.0386    0.2954   -0.0387    0.2954   13.8712    1.4460
 18.000    0.0418    0.4403    0.0418    0.4403    0.0421    0.4403    0.0421    0.4403    0.0419    0.4403    0.0418    0.4403   27.9608    1.5487
 18.100   -0.0901    0.5967   -0.0901    0.5967   -0.0899    0.5967   -0.0899    0.5967   -0.0900    0.5967   -0.0901    0.5967   36.1380    1.6815
 18.200   -0.2641    0.4561   -0.2642    0.4561   -0.2639    0.4561   -0.2639    0.4561   -0.2641    0.4561   -0.2642    0.4561   29.9474    1.7916
 18.300   -0.2183    0.2797   -0.2183    0.2797   -0.2180    0.2797   -0.2180    0.2797   -0.2182    0.2797   -0.2183    0.2797   15.9123    1.8501
 18.400   -0.1190    0.1909   -0.1190    0.1909   -0.1187    0.1909   -0.1188    0.1909   -0.1189    0.1909   -0.1190    0.1909    5.4211    1.8700
 18.500   -0.0262    0.1464   -0.0262    0.1464   -0.0260    0.1464   -0.0260    0.1464   -0.0261    0.1464   -0.0262    0.1464    1.1842    1.8743
 18.600    0.0548    0.1212    0.0548    0.1212    0.0551    0.1212    0.0550    0.1212    0.0549    0.1212    0.0548    0.1212    0.1659    1.8749
 18.700    0.1263    0.1054    0.1263    0.1054    0.1266    0.1054    0.1266    0.1054    0.1264    0.1054    0.1263    0.1054    0.0149    1.8750
 18.800    0.1908    0.0946    0.1908    0.0946    0.1910    0.0946    0.1910    0.0946    0.1909    0.0946    0.1908    0.0946    0.0009    1.8750
 18.900    0.2499    0.0868    0.2499    0.0868    0.2502    0.0868    0.2501    0.0868    0.2500    0.0868    0.2499    0.0868    0.0000    1.8750
 19.000    0.3049    0.0810    0.3049    0.0810    0.3052    0.0810    0.3052    0.0810    0.3050    0.0810    0.3049    0.0810    0.0000    1.8750
 19.100    0.3568    0.0765    0.3568    0.0765    0.3570    0.0765    0.3570    0.0765    0.3568    0.0765    0.3568    0.0765    0.0000    1.8750
 19.200    0.4061    0.0730    0.4061    0.0730    0.4064    0.0730    0.4064    0.0730    0.4062    0.0730    0.4061    0.0730    0.0000    1.8750
 19.300    0.4535    0.0704    0.4535    0.0704    0.4538    0.0704    0.4538    0.0704    0.4536    0.0704    0.4535    0.0704    0.0000    1.8750
 19.400    0.4994    0.0683    0.4994    0.0683    0.4997    0.0683    0.4997    0.0683    0.4995    0.0683    0.4994    0.0683    0.0000    1.8750
 19.500    0.5442    0.0669    0.5442    0.0669    0.5444    0.0669    0.5444    0.0669    0.5442    0.0669    0.5442    0.0669    0.0000    1.8750
 19.600    0.5882    0.0659    0.5881    0.0659    0.5884    0.0659    0.5884    0.0659    0.5882    0.0659    0.5881    0.0659    0.0000    1.8750
 19.700    0.6317    0.0654    0.6317    0.0654    0.6319    0.0654    0.6319    0.0654    0.6317    0.0654    0.6317    0.0654    0.0000    1.8750
 19.800    0.6751    0.0655    0.6750    0.0655    0.6753    0.0655    0.6753    0.0655    0.6751    0.0655    0.6750    0.0655    0.0000    1.8750
 19.900    0.7186    0.0659    0.7186    0.0659    0.7188    0.0659    0.7188    0.0659    0.7186    0.0659    0.7186    0.0659    0.0007    1.8750
 20.000    0.7626    0.0669    0.7625    0.0669    0.7628    0.0669    0.7628    0.0669    0.7626    0.0669    0.7625    0.0669    0.0135    1.8751
 20.100    0.8074    0.0684    0.8073    0.0684    0.8076    0.0684    0.8076    0.0684    0.8074    0.0684    0.8073    0.0684    0.1634    1.8757
 20.200    0.8533    0.0705    0.8533    0.0705    0.8536    0.0705    0.8536    0.0705    0.8534    0.0705    0.8533    0.0705    1.2683    1.8803
 20.300    0.9008    0.0733    0.9008    0.0733    0.9011    0.0733    0.9011    0.0733    0.9009    0.0733    0.9008    0.0733    6.3140    1.9035
 20.400    0.9504    0.0768    0.9504    0.0768    0.9506    0.0768    0.9506    0.0768    0.9505    0.0768    0.9504    0.0768   20.1543    1.9776
 20.500    1.0025    0.0812    1.0025    0.0812    1.0028    0.0812    1.0028    0.0812    1.0026    0.0812    1.0025    0.0812   41.2486    2.1292
 20.600    1.0578    0.0867    1.0578    0.0867    1.0581    0.0867    1.0581    0.0867    1.0579    0.0867    1.0578    0.0867   54.1292    2.3281
 20.700    1.1171    0.0936    1.1171    0.0936    1.1173    0.0936    1.1173    0.0936    1.1172    0.0936    1.1171    0.0936   45.5443    2.4955
 20.800    1.1813    0.1021    1.1813    0.1021    1.1815    0.1021    1.1815    0.1021    1.1813    0.1021    1.1813    0.1021   24.5707    2.5858
 20.900    1.2515    0.1127    1.2515    0.1127    1.2518    0.1127    1.2518    0.1127    1.2516    0.1127    1.2515    0.1127    8.4992    2.6170
 21.000    1.3294    0.1261    1.3294    0.1261    1.3296    0.1261    1.3296    0.1261    1.3295    0.1261    1.3294    0.1261    1.8851    2.6239
 21.100    1.4168    0.1431    1.4167    0.1431    1.4170    0.1431    1.4170    0.1431    1.4168    0.1431    1.4167    0.1431    0.2684    2.6249
 21.200    1.5162    0.1651    1.5162    0.1651    1.5165    0.1651    1.5165    0.1651    1.5163    0.1651    1.5162    0.1651    0.0316    2.6250
 21.300    1.6313    0.1940    1.6313    0.1940    1.6315    0.1940    1.6315    0.1940    1.6314    0.1940    1.6313    0.1940    0.1017    2.6254
 21.400    1.7667    0.2328    1.7667    0.2328    1.7670    0.2328    1.7670    0.2328    1.7668    0.2328    1.7667    0.2328    0.9016    2.6287
 21.500    1.9293    0.2864    1.9293    0.2864    1.9295    0.2864    1.9295    0.2864    1.9294    0.2864    1.9293    0.2864    5.1994    2.6478
 21.600    2.1289    0.3632    2.1289    0.3632    2.1292    0.3632    2.1292    0.3632    2.1290    0.3632    2.1289    0.3632   19.2263    2.7185
 21.700    2.3803    0.4778    2.3803    0.4778    2.3806    0.4778    2.3806    0.4778    2.3804    0.4778    2.3803    0.4778   45.5944    2.8860
 21.800    2.7056    0.6590    2.7055    0.6590    2.7058    0.6590    2.7058    0.6590    2.7056    0.6590    2.7056    0.6590   69.4451    3.1412
 21.900    3.1368    0.9665    3.1368    0.9665    3.1371    0.9665    3.1371    0.9665    3.1369    0.9665    3.1368    0.9665   68.7435    3.3939
 22.000    3.7099    1.5380    3.7098    1.5380    3.7101    1.5380    3.7101    1.5380    3.7099    1.5380    3.7098    1.5380   48.3169    3.5714
 22.100    4.3846    2.7152    4.3846    2.7152    4.3849    2.7152    4.3849    2.7152    4.3847    2.7152    4.3846    2.7152   36.9437    3.7072
 22.200    4.4923    5.2108    4.4923    5.2108    4.4926    5.2108    4.4925    5.2108    4.4924    5.2108    4.4923    5.2108   47.3695    3.8813
 22.300    1.3132    8.1482    1.3132    8.1482    1.3135    8.1482    1.3135    8.1482    1.3133    8.1482    1.3132    8.1482   63.0787    4.1131
 22.400   -2.9843    6.1952   -2.9844    6.1952   -2.9841    6.1952   -2.9841    6.1952   -2.9843    6.1952   -2.9844    6.1952   64.7325    4.3510
 22.500   -3.4492    3.2498   -3.4492    3.2498   -3.4489    3.2498   -3.4489    3.2498   -3.4491    3.2498   -3.4492    3.2498   51.7797    4.5413
 22.600   -2.8069    1.7839   -2.8069    1.7839   -2.8067    1.7839   -2.8067    1.7839   -2.8068    1.7839   -2.8069    1.7839   33.2174    4.6633
 22.700   -2.1940    1.0890   -2.1940    1.0890   -2.1937    1.0890   -2.1937    1.0890   -2.1939    1.0890   -2.1940    1.0890   16.3290    4.7233
 22.800   -1.7281    0.7254   -1.7282    0.7254   -1.7279    0.7254   -1.7279    0.7254   -1.7281    0.7254   -1.7282    0.7254    5.6959    4.7443
 22.900   -1.3795    0.5157   -1.3796    0.5157   -1.3793    0.5157   -1.3793    0.5157   -1.3795    0.5157   -1.3796    0.5157    1.3347    4.7492
 23.000   -1.1134    0.3851   -1.1135    0.3851   -1.1132    0.3851   -1.1132    0.3851   -1.1134    0.3851   -1.1134    0.3851    0.2044    4.7499
 23.100   -0.9050    0.2987   -0.9050    0.2987   -0.9047    0.2987   -0.9047    0.2987   -0.9049    0.2987   -0.9050    0.2987    0.0202    4.7500
 23.200   -0.7378    0.2386   -0.7378    0.2386   -0.7376    0.2386   -0.7376    0.2386   -0.7378    0.2386   -0.7378    0.2386    0.0013    4.7500
 23.300   -0.6008    0.1953   -0.6009    0.1953   -0.6006    0.1953   -0.6006    0.1953   -0.6008    0.1953   -0.6009    0.1953    0.0002    4.7500
 23.400   -0.4865    0.1630   -0.4866    0.1630   -0.4863    0.1630   -0.4863    0.1630   -0.4865    0.1630   -0.4866    0.1630    0.0032    4.7500
 23.500   -0.3897    0.1383   -0.3897    0.1383   -0.3894    0.1383   -0.3894    0.1383   -0.3896    0.1383   -0.3897    0.1383    0.0456    4.7502
 23.600   -0.3065    0.1190   -0.3065    0.1190   -0.3062    0.1190   -0.3062    0.1190   -0.3064    0.1190   -0.3065    0.1190    0.4200    4.7517
 23.700   -0.2341    0.1037   -0.2341    0.1037   -0.2338    0.1037   -0.2339    0.1037   -0.2341    0.1037   -0.2341    0.1037    2.4928    4.7605
 23.800   -0.1706    0.0912   -0.1706    0.0912   -0.1703    0.0912   -0.1703    0.0912   -0.1705    0.0912   -0.1706    0.0912    9.6165    4.8017
 23.900   -0.1143    0.0810   -0.1143    0.0810   -0.1140    0.0810   -0.1140    0.0810   -0.1142    0.0810   -0.1143    0.0810   24.4935    4.8355
