# RPA macroscopic dielectric function without local fields
# Tolerance =  0.0200 0.0000
# npweps  = 27
# npwwfn  = 331
# nbands  = 7
# loband  = 2
# nkibz   = 3
# nkbz    = 8
# Lorentzian broadening =  0.1500 [eV]
# List of q-points for the optical limit:
# q =  0.707858, 0.000000, 0.000000, [Reduced coords] 
# q =  0.000000, 0.707858, 0.000000, [Reduced coords] 
# q =  0.000000, 0.000000, 0.707858, [Reduced coords] 
# q =  0.000000, 0.613023, 0.613023, [Reduced coords] 
# q =  0.613023, 0.000000, 0.613023, [Reduced coords] 
# q =  0.613023, 0.613023, 0.000000, [Reduced coords] 
# omega [eV]    RE(eps(q=1)) IM(eps(q=1) RE(eps(q=2) ) ... DOS   IDOS
  0.000    1.9170    0.0000    1.9170    0.0000    1.9173    0.0000    1.9173    0.0000    1.9171    0.0000    1.9170    0.0000    0.0000    0.0000
  0.100    1.9171    0.0002    1.9171    0.0002    1.9174    0.0002    1.9174    0.0002    1.9172    0.0002    1.9171    0.0002    0.0000    0.0000
  0.200    1.9174    0.0005    1.9173    0.0005    1.9176    0.0005    1.9176    0.0005    1.9174    0.0005    1.9173    0.0005    0.0000    0.0000
  0.300    1.9178    0.0007    1.9177    0.0007    1.9180    0.0007    1.9180    0.0007    1.9178    0.0007    1.9178    0.0007    0.0000    0.0000
  0.400    1.9183    0.0010    1.9183    0.0010    1.9186    0.0010    1.9186    0.0010    1.9184    0.0010    1.9183    0.0010    0.0000    0.0000
  0.500    1.9191    0.0012    1.9190    0.0012    1.9193    0.0012    1.9193    0.0012    1.9191    0.0012    1.9190    0.0012    0.0000    0.0000
  0.600    1.9200    0.0015    1.9199    0.0015    1.9202    0.0015    1.9202    0.0015    1.9200    0.0015    1.9199    0.0015    0.0000    0.0000
  0.700    1.9210    0.0017    1.9210    0.0017    1.9213    0.0017    1.9213    0.0017    1.9211    0.0017    1.9210    0.0017    0.0000    0.0000
  0.800    1.9222    0.0020    1.9222    0.0020    1.9225    0.0020    1.9225    0.0020    1.9223    0.0020    1.9222    0.0020    0.0000    0.0000
  0.900    1.9236    0.0022    1.9236    0.0022    1.9239    0.0022    1.9239    0.0022    1.9237    0.0022    1.9236    0.0022    0.0000    0.0000
  1.000    1.9252    0.0025    1.9252    0.0025    1.9254    0.0025    1.9254    0.0025    1.9253    0.0025    1.9252    0.0025    0.0000    0.0000
  1.100    1.9269    0.0027    1.9269    0.0027    1.9272    0.0027    1.9272    0.0027    1.9270    0.0027    1.9269    0.0027    0.0000    0.0000
  1.200    1.9288    0.0030    1.9288    0.0030    1.9291    0.0030    1.9291    0.0030    1.9289    0.0030    1.9288    0.0030    0.0000    0.0000
  1.300    1.9309    0.0033    1.9309    0.0033    1.9312    0.0033    1.9312    0.0033    1.9310    0.0033    1.9309    0.0033    0.0000    0.0000
  1.400    1.9332    0.0035    1.9332    0.0035    1.9334    0.0035    1.9334    0.0035    1.9332    0.0035    1.9332    0.0035    0.0000    0.0000
  1.500    1.9356    0.0038    1.9356    0.0038    1.9359    0.0038    1.9359    0.0038    1.9357    0.0038    1.9356    0.0038    0.0000    0.0000
  1.600    1.9382    0.0041    1.9382    0.0041    1.9385    0.0041    1.9385    0.0041    1.9383    0.0041    1.9382    0.0041    0.0000    0.0000
  1.700    1.9411    0.0044    1.9410    0.0044    1.9413    0.0044    1.9413    0.0044    1.9411    0.0044    1.9410    0.0044    0.0000    0.0000
  1.800    1.9441    0.0047    1.9440    0.0047    1.9443    0.0047    1.9443    0.0047    1.9441    0.0047    1.9440    0.0047    0.0000    0.0000
  1.900    1.9473    0.0050    1.9472    0.0050    1.9475    0.0050    1.9475    0.0050    1.9473    0.0050    1.9472    0.0050    0.0000    0.0000
  2.000    1.9507    0.0053    1.9506    0.0053    1.9509    0.0053    1.9509    0.0053    1.9507    0.0053    1.9506    0.0053    0.0000    0.0000
  2.100    1.9543    0.0056    1.9542    0.0056    1.9545    0.0056    1.9545    0.0056    1.9543    0.0056    1.9542    0.0056    0.0000    0.0000
  2.200    1.9581    0.0059    1.9580    0.0059    1.9583    0.0059    1.9583    0.0059    1.9581    0.0059    1.9580    0.0059    0.0000    0.0000
  2.300    1.9621    0.0062    1.9621    0.0062    1.9623    0.0062    1.9623    0.0062    1.9621    0.0062    1.9621    0.0062    0.0000    0.0000
  2.400    1.9663    0.0065    1.9663    0.0065    1.9666    0.0065    1.9666    0.0065    1.9664    0.0065    1.9663    0.0065    0.0000    0.0000
  2.500    1.9708    0.0069    1.9708    0.0069    1.9710    0.0069    1.9710    0.0069    1.9709    0.0069    1.9708    0.0069    0.0000    0.0000
  2.600    1.9755    0.0072    1.9755    0.0072    1.9757    0.0072    1.9757    0.0072    1.9756    0.0072    1.9755    0.0072    0.0000    0.0000
  2.700    1.9804    0.0076    1.9804    0.0076    1.9807    0.0076    1.9807    0.0076    1.9805    0.0076    1.9804    0.0076    0.0000    0.0000
  2.800    1.9856    0.0080    1.9856    0.0080    1.9859    0.0080    1.9859    0.0080    1.9857    0.0080    1.9856    0.0080    0.0000    0.0000
  2.900    1.9911    0.0084    1.9910    0.0084    1.9913    0.0084    1.9913    0.0084    1.9911    0.0084    1.9910    0.0084    0.0000    0.0000
  3.000    1.9968    0.0088    1.9967    0.0088    1.9970    0.0088    1.9970    0.0088    1.9968    0.0088    1.9967    0.0088    0.0000    0.0000
  3.100    2.0027    0.0092    2.0027    0.0092    2.0030    0.0092    2.0030    0.0092    2.0028    0.0092    2.0027    0.0092    0.0000    0.0000
  3.200    2.0090    0.0096    2.0090    0.0096    2.0092    0.0096    2.0092    0.0096    2.0090    0.0096    2.0090    0.0096    0.0000    0.0000
  3.300    2.0155    0.0101    2.0155    0.0101    2.0158    0.0101    2.0158    0.0101    2.0156    0.0101    2.0155    0.0101    0.0000    0.0000
  3.400    2.0224    0.0105    2.0224    0.0105    2.0226    0.0105    2.0226    0.0105    2.0224    0.0105    2.0224    0.0105    0.0000    0.0000
  3.500    2.0295    0.0110    2.0295    0.0110    2.0298    0.0110    2.0298    0.0110    2.0296    0.0110    2.0295    0.0110    0.0000    0.0000
  3.600    2.0370    0.0115    2.0370    0.0115    2.0373    0.0115    2.0373    0.0115    2.0371    0.0115    2.0370    0.0115    0.0000    0.0000
  3.700    2.0448    0.0120    2.0448    0.0120    2.0451    0.0120    2.0451    0.0120    2.0449    0.0120    2.0448    0.0120    0.0000    0.0000
  3.800    2.0530    0.0126    2.0530    0.0126    2.0533    0.0126    2.0533    0.0126    2.0531    0.0126    2.0530    0.0126    0.0000    0.0000
  3.900    2.0616    0.0131    2.0616    0.0131    2.0618    0.0131    2.0618    0.0131    2.0616    0.0131    2.0616    0.0131    0.0000    0.0000
  4.000    2.0705    0.0137    2.0705    0.0137    2.0707    0.0137    2.0707    0.0137    2.0706    0.0137    2.0705    0.0137    0.0000    0.0000
  4.100    2.0799    0.0143    2.0798    0.0143    2.0801    0.0143    2.0801    0.0143    2.0799    0.0143    2.0798    0.0143    0.0000    0.0000
  4.200    2.0896    0.0150    2.0896    0.0150    2.0899    0.0150    2.0899    0.0150    2.0897    0.0150    2.0896    0.0150    0.0000    0.0000
  4.300    2.0998    0.0157    2.0998    0.0157    2.1001    0.0157    2.1001    0.0157    2.0999    0.0157    2.0998    0.0157    0.0000    0.0000
  4.400    2.1105    0.0164    2.1105    0.0164    2.1107    0.0164    2.1107    0.0164    2.1106    0.0164    2.1105    0.0164    0.0000    0.0000
  4.500    2.1217    0.0172    2.1217    0.0172    2.1219    0.0172    2.1219    0.0172    2.1217    0.0172    2.1217    0.0172    0.0000    0.0000
  4.600    2.1334    0.0180    2.1334    0.0180    2.1336    0.0180    2.1336    0.0180    2.1334    0.0180    2.1334    0.0180    0.0000    0.0000
  4.700    2.1456    0.0188    2.1456    0.0188    2.1459    0.0188    2.1458    0.0188    2.1457    0.0188    2.1456    0.0188    0.0000    0.0000
  4.800    2.1584    0.0197    2.1584    0.0197    2.1587    0.0197    2.1587    0.0197    2.1585    0.0197    2.1584    0.0197    0.0000    0.0000
  4.900    2.1719    0.0207    2.1718    0.0207    2.1721    0.0207    2.1721    0.0207    2.1719    0.0207    2.1718    0.0207    0.0000    0.0000
  5.000    2.1860    0.0217    2.1859    0.0217    2.1862    0.0217    2.1862    0.0217    2.1860    0.0217    2.1859    0.0217    0.0000    0.0000
  5.100    2.2007    0.0228    2.2007    0.0228    2.2010    0.0228    2.2010    0.0228    2.2008    0.0228    2.2007    0.0228    0.0000    0.0000
  5.200    2.2163    0.0239    2.2162    0.0239    2.2165    0.0239    2.2165    0.0239    2.2163    0.0239    2.2162    0.0239    0.0000    0.0000
  5.300    2.2326    0.0251    2.2325    0.0251    2.2328    0.0251    2.2328    0.0251    2.2326    0.0251    2.2325    0.0251    0.0000    0.0000
  5.400    2.2497    0.0264    2.2497    0.0264    2.2499    0.0264    2.2499    0.0264    2.2498    0.0264    2.2497    0.0264    0.0000    0.0000
  5.500    2.2677    0.0279    2.2677    0.0279    2.2680    0.0279    2.2680    0.0279    2.2678    0.0279    2.2677    0.0279    0.0000    0.0000
  5.600    2.2868    0.0294    2.2867    0.0294    2.2870    0.0294    2.2870    0.0294    2.2868    0.0294    2.2867    0.0294    0.0000    0.0000
  5.700    2.3068    0.0310    2.3068    0.0310    2.3071    0.0310    2.3070    0.0310    2.3069    0.0310    2.3068    0.0310    0.0000    0.0000
  5.800    2.3280    0.0328    2.3280    0.0328    2.3282    0.0328    2.3282    0.0328    2.3280    0.0328    2.3280    0.0328    0.0000    0.0000
  5.900    2.3504    0.0347    2.3504    0.0347    2.3506    0.0347    2.3506    0.0347    2.3504    0.0347    2.3504    0.0347    0.0000    0.0000
  6.000    2.3741    0.0368    2.3741    0.0368    2.3743    0.0368    2.3743    0.0368    2.3741    0.0368    2.3741    0.0368    0.0000    0.0000
  6.100    2.3992    0.0390    2.3992    0.0390    2.3995    0.0390    2.3995    0.0390    2.3993    0.0390    2.3992    0.0390    0.0000    0.0000
  6.200    2.4259    0.0415    2.4259    0.0415    2.4262    0.0415    2.4262    0.0415    2.4260    0.0415    2.4259    0.0415    0.0000    0.0000
  6.300    2.4544    0.0442    2.4543    0.0442    2.4546    0.0442    2.4546    0.0442    2.4544    0.0442    2.4543    0.0442    0.0000    0.0000
  6.400    2.4847    0.0472    2.4847    0.0472    2.4849    0.0472    2.4849    0.0472    2.4847    0.0472    2.4847    0.0472    0.0000    0.0000
  6.500    2.5171    0.0506    2.5171    0.0506    2.5173    0.0506    2.5173    0.0506    2.5171    0.0506    2.5171    0.0506    0.0000    0.0000
  6.600    2.5518    0.0543    2.5518    0.0543    2.5520    0.0543    2.5520    0.0543    2.5518    0.0543    2.5518    0.0543    0.0000    0.0000
  6.700    2.5891    0.0584    2.5891    0.0584    2.5893    0.0584    2.5893    0.0584    2.5891    0.0584    2.5891    0.0584    0.0000    0.0000
  6.800    2.6293    0.0631    2.6292    0.0631    2.6295    0.0631    2.6295    0.0631    2.6293    0.0631    2.6292    0.0631    0.0000    0.0000
  6.900    2.6727    0.0684    2.6727    0.0684    2.6729    0.0684    2.6729    0.0684    2.6727    0.0684    2.6727    0.0684    0.0000    0.0000
  7.000    2.7198    0.0744    2.7198    0.0744    2.7200    0.0744    2.7200    0.0744    2.7199    0.0744    2.7198    0.0744    0.0000    0.0000
  7.100    2.7712    0.0813    2.7711    0.0813    2.7714    0.0813    2.7714    0.0813    2.7712    0.0813    2.7711    0.0813    0.0000    0.0000
  7.200    2.8274    0.0894    2.8274    0.0894    2.8276    0.0894    2.8276    0.0894    2.8274    0.0894    2.8274    0.0894    0.0000    0.0000
  7.300    2.8893    0.0989    2.8892    0.0989    2.8895    0.0989    2.8895    0.0989    2.8893    0.0989    2.8892    0.0989    0.0000    0.0000
  7.400    2.9578    0.1101    2.9577    0.1101    2.9580    0.1101    2.9580    0.1101    2.9578    0.1101    2.9577    0.1101    0.0000    0.0000
  7.500    3.0342    0.1236    3.0342    0.1236    3.0344    0.1236    3.0344    0.1236    3.0342    0.1236    3.0342    0.1236    0.0000    0.0000
  7.600    3.1201    0.1400    3.1201    0.1400    3.1204    0.1400    3.1203    0.1400    3.1202    0.1400    3.1201    0.1400    0.0000    0.0000
  7.700    3.2176    0.1605    3.2176    0.1605    3.2179    0.1605    3.2179    0.1605    3.2177    0.1605    3.2176    0.1605    0.0000    0.0000
  7.800    3.3296    0.1865    3.3296    0.1865    3.3299    0.1865    3.3298    0.1865    3.3297    0.1865    3.3296    0.1865    0.0000    0.0000
  7.900    3.4599    0.2204    3.4598    0.2204    3.4601    0.2204    3.4601    0.2204    3.4599    0.2204    3.4598    0.2204    0.0000    0.0000
  8.000    3.6138    0.2660    3.6138    0.2660    3.6140    0.2660    3.6140    0.2660    3.6139    0.2660    3.6138    0.2660    0.0000    0.0000
  8.100    3.7992    0.3294    3.7992    0.3294    3.7995    0.3294    3.7995    0.3294    3.7993    0.3294    3.7992    0.3294    0.0003    0.0000
  8.200    4.0276    0.4221    4.0276    0.4221    4.0278    0.4221    4.0278    0.4221    4.0277    0.4221    4.0276    0.4221    0.0056    0.0000
  8.300    4.3161    0.5656    4.3161    0.5656    4.3163    0.5656    4.3163    0.5656    4.3161    0.5656    4.3161    0.5656    0.0703    0.0003
  8.400    4.6896    0.8047    4.6896    0.8047    4.6898    0.8047    4.6898    0.8047    4.6897    0.8047    4.6896    0.8047    0.5620    0.0023
  8.500    5.1765    1.2423    5.1765    1.2423    5.1768    1.2423    5.1768    1.2423    5.1766    1.2423    5.1765    1.2423    2.8807    0.0129
  8.600    5.7518    2.1333    5.7518    2.1333    5.7521    2.1333    5.7521    2.1333    5.7519    2.1333    5.7518    2.1333    9.4670    0.0477
  8.700    5.9372    4.0197    5.9372    4.0197    5.9375    4.0197    5.9375    4.0197    5.9373    4.0197    5.9372    4.0197   19.9483    0.1210
  8.800    3.6805    6.3520    3.6804    6.3520    3.6807    6.3520    3.6807    6.3520    3.6805    6.3520    3.6804    6.3520   26.9512    0.2201
  8.900    0.3655    4.9907    0.3655    4.9907    0.3657    4.9907    0.3657    4.9907    0.3655    4.9907    0.3655    4.9907   23.3469    0.3059
  9.000    0.0240    2.7016    0.0240    2.7016    0.0243    2.7016    0.0243    2.7016    0.0241    2.7016    0.0240    2.7016   12.9677    0.3535
  9.100    0.6112    1.5613    0.6112    1.5613    0.6115    1.5613    0.6115    1.5613    0.6113    1.5613    0.6112    1.5613    4.6182    0.3705
  9.200    1.1997    1.0363    1.1997    1.0363    1.2000    1.0363    1.2000    1.0363    1.1998    1.0363    1.1997    1.0363    1.0545    0.3744
  9.300    1.6915    0.7788    1.6914    0.7788    1.6917    0.7788    1.6917    0.7788    1.6915    0.7788    1.6914    0.7788    0.1544    0.3749
  9.400    2.1119    0.6494    2.1119    0.6494    2.1121    0.6494    2.1121    0.6494    2.1120    0.6494    2.1119    0.6494    0.0145    0.3750
  9.500    2.4928    0.5910    2.4927    0.5910    2.4930    0.5910    2.4930    0.5910    2.4928    0.5910    2.4927    0.5910    0.0009    0.3750
  9.600    2.8595    0.5792    2.8595    0.5792    2.8598    0.5792    2.8598    0.5792    2.8596    0.5792    2.8595    0.5792    0.0000    0.3750
  9.700    3.2335    0.6050    3.2335    0.6050    3.2338    0.6050    3.2338    0.6050    3.2336    0.6050    3.2335    0.6050    0.0000    0.3750
  9.800    3.6351    0.6682    3.6351    0.6682    3.6353    0.6682    3.6353    0.6682    3.6352    0.6682    3.6351    0.6682    0.0000    0.3750
  9.900    4.0867    0.7767    4.0867    0.7767    4.0870    0.7767    4.0870    0.7767    4.0868    0.7767    4.0867    0.7767    0.0000    0.3750
 10.000    4.6169    0.9485    4.6168    0.9485    4.6171    0.9485    4.6171    0.9485    4.6169    0.9485    4.6168    0.9485    0.0012    0.3750
 10.100    5.2647    1.2195    5.2647    1.2195    5.2650    1.2195    5.2650    1.2195    5.2648    1.2195    5.2647    1.2195    0.0220    0.3751
 10.200    6.0870    1.6613    6.0870    1.6613    6.0873    1.6613    6.0873    1.6613    6.0871    1.6613    6.0870    1.6613    0.2575    0.3760
 10.300    7.1640    2.4270    7.1640    2.4270    7.1643    2.4270    7.1643    2.4270    7.1641    2.4270    7.1640    2.4270    1.9346    0.3831
 10.400    8.5782    3.8738    8.5781    3.8738    8.5784    3.8738    8.5784    3.8738    8.5782    3.8738    8.5781    3.8738    9.3180    0.4174
 10.500   10.1797    6.8911   10.1797    6.8911   10.1800    6.8911   10.1800    6.8911   10.1798    6.8911   10.1797    6.8911   28.7772    0.5231
 10.600   10.0258   13.2060   10.0258   13.2060   10.0261   13.2060   10.0261   13.2060   10.0259   13.2060   10.0258   13.2060   56.9839    0.7326
 10.700    1.4413   19.4799    1.4413   19.4799    1.4416   19.4799    1.4415   19.4799    1.4414   19.4799    1.4413   19.4799   72.3496    0.9984
 10.800   -7.8520   13.8139   -7.8521   13.8139   -7.8518   13.8139   -7.8518   13.8139   -7.8520   13.8139   -7.8520   13.8139   58.8980    1.2149
 10.900   -8.3674    7.2084   -8.3674    7.2084   -8.3671    7.2084   -8.3672    7.2084   -8.3673    7.2084   -8.3674    7.2084   30.7429    1.3279
 11.000   -6.7973    4.0037   -6.7974    4.0037   -6.7971    4.0037   -6.7971    4.0037   -6.7973    4.0037   -6.7974    4.0037   10.2889    1.3657
 11.100   -5.3759    2.4713   -5.3759    2.4713   -5.3756    2.4713   -5.3756    2.4713   -5.3758    2.4713   -5.3759    2.4713    2.2079    1.3738
 11.200   -4.3011    1.6604   -4.3011    1.6604   -4.3008    1.6604   -4.3008    1.6604   -4.3010    1.6604   -4.3011    1.6604    0.3038    1.3749
 11.300   -3.4951    1.1887   -3.4951    1.1887   -3.4948    1.1887   -3.4949    1.1887   -3.4950    1.1887   -3.4951    1.1887    0.0268    1.3750
 11.400   -2.8775    0.8928   -2.8775    0.8928   -2.8772    0.8928   -2.8772    0.8928   -2.8774    0.8928   -2.8775    0.8928    0.0015    1.3750
 11.500   -2.3918    0.6961   -2.3918    0.6961   -2.3916    0.6961   -2.3916    0.6961   -2.3917    0.6961   -2.3918    0.6961    0.0001    1.3750
 11.600   -2.0004    0.5593   -2.0005    0.5593   -2.0002    0.5593   -2.0002    0.5593   -2.0004    0.5593   -2.0005    0.5593    0.0000    1.3750
 11.700   -1.6781    0.4606   -1.6781    0.4606   -1.6778    0.4606   -1.6778    0.4606   -1.6780    0.4606   -1.6781    0.4606    0.0000    1.3750
 11.800   -1.4074    0.3875   -1.4074    0.3875   -1.4072    0.3875   -1.4072    0.3875   -1.4073    0.3875   -1.4074    0.3875    0.0000    1.3750
 11.900   -1.1761    0.3322   -1.1761    0.3322   -1.1758    0.3322   -1.1758    0.3322   -1.1760    0.3322   -1.1761    0.3322    0.0000    1.3750
 12.000   -0.9750    0.2900   -0.9751    0.2900   -0.9748    0.2900   -0.9748    0.2900   -0.9750    0.2900   -0.9751    0.2900    0.0000    1.3750
 12.100   -0.7975    0.2577   -0.7976    0.2577   -0.7973    0.2577   -0.7973    0.2577   -0.7975    0.2577   -0.7976    0.2577    0.0000    1.3750
 12.200   -0.6381    0.2338   -0.6381    0.2338   -0.6378    0.2338   -0.6378    0.2338   -0.6380    0.2338   -0.6381    0.2338    0.0005    1.3750
 12.300   -0.4921    0.2174   -0.4921    0.2174   -0.4918    0.2174   -0.4919    0.2174   -0.4920    0.2174   -0.4921    0.2174    0.0099    1.3750
 12.400   -0.3553    0.2092   -0.3554    0.2092   -0.3551    0.2092   -0.3551    0.2092   -0.3553    0.2092   -0.3554    0.2092    0.1177    1.3755
 12.500   -0.2235    0.2124   -0.2235    0.2124   -0.2232    0.2124   -0.2233    0.2124   -0.2234    0.2124   -0.2235    0.2124    0.8999    1.3788
 12.600   -0.0927    0.2351   -0.0927    0.2351   -0.0924    0.2351   -0.0924    0.2351   -0.0926    0.2351   -0.0927    0.2351    4.4123    1.3950
 12.700    0.0353    0.2990    0.0353    0.2990    0.0356    0.2990    0.0356    0.2990    0.0354    0.2990    0.0353    0.2990   13.8712    1.4460
 12.800    0.1152    0.4483    0.1151    0.4483    0.1154    0.4483    0.1154    0.4483    0.1152    0.4483    0.1151    0.4483   27.9608    1.5487
 12.900   -0.0231    0.6093   -0.0231    0.6093   -0.0228    0.6093   -0.0229    0.6093   -0.0230    0.6093   -0.0231    0.6093   36.1380    1.6815
 13.000   -0.2045    0.4651   -0.2045    0.4651   -0.2042    0.4651   -0.2042    0.4651   -0.2044    0.4651   -0.2045    0.4651   29.9474    1.7916
 13.100   -0.1597    0.2840   -0.1597    0.2840   -0.1595    0.2840   -0.1595    0.2840   -0.1596    0.2840   -0.1597    0.2840   15.9123    1.8501
 13.200   -0.0599    0.1929   -0.0599    0.1929   -0.0597    0.1929   -0.0597    0.1929   -0.0599    0.1929   -0.0599    0.1929    5.4211    1.8700
 13.300    0.0333    0.1473    0.0333    0.1473    0.0336    0.1473    0.0336    0.1473    0.0334    0.1473    0.0333    0.1473    1.1842    1.8743
 13.400    0.1145    0.1216    0.1145    0.1216    0.1148    0.1216    0.1148    0.1216    0.1146    0.1216    0.1145    0.1216    0.1659    1.8749
 13.500    0.1861    0.1055    0.1861    0.1055    0.1864    0.1055    0.1864    0.1055    0.1862    0.1055    0.1861    0.1055    0.0149    1.8750
 13.600    0.2505    0.0945    0.2504    0.0945    0.2507    0.0945    0.2507    0.0945    0.2505    0.0945    0.2504    0.0945    0.0009    1.8750
 13.700    0.3094    0.0866    0.3094    0.0866    0.3097    0.0866    0.3097    0.0866    0.3095    0.0866    0.3094    0.0866    0.0000    1.8750
 13.800    0.3642    0.0806    0.3642    0.0806    0.3645    0.0806    0.3645    0.0806    0.3643    0.0806    0.3642    0.0806    0.0000    1.8750
 13.900    0.4158    0.0761    0.4158    0.0761    0.4161    0.0761    0.4160    0.0761    0.4159    0.0761    0.4158    0.0761    0.0000    1.8750
 14.000    0.4649    0.0726    0.4648    0.0726    0.4651    0.0726    0.4651    0.0726    0.4649    0.0726    0.4648    0.0726    0.0000    1.8750
 14.100    0.5119    0.0699    0.5119    0.0699    0.5122    0.0699    0.5122    0.0699    0.5120    0.0699    0.5119    0.0699    0.0000    1.8750
 14.200    0.5575    0.0678    0.5575    0.0678    0.5578    0.0678    0.5578    0.0678    0.5576    0.0678    0.5575    0.0678    0.0000    1.8750
 14.300    0.6019    0.0664    0.6019    0.0664    0.6022    0.0664    0.6022    0.0664    0.6020    0.0664    0.6019    0.0664    0.0000    1.8750
 14.400    0.6456    0.0654    0.6455    0.0654    0.6458    0.0654    0.6458    0.0654    0.6456    0.0654    0.6455    0.0654    0.0000    1.8750
 14.500    0.6888    0.0649    0.6887    0.0649    0.6890    0.0649    0.6890    0.0649    0.6888    0.0649    0.6887    0.0649    0.0000    1.8750
 14.600    0.7318    0.0649    0.7317    0.0649    0.7320    0.0649    0.7320    0.0649    0.7318    0.0649    0.7317    0.0649    0.0000    1.8750
 14.700    0.7749    0.0654    0.7749    0.0654    0.7752    0.0654    0.7752    0.0654    0.7750    0.0654    0.7749    0.0654    0.0007    1.8750
 14.800    0.8186    0.0664    0.8186    0.0664    0.8189    0.0664    0.8188    0.0664    0.8187    0.0664    0.8186    0.0664    0.0135    1.8751
 14.900    0.8630    0.0679    0.8630    0.0679    0.8633    0.0679    0.8633    0.0679    0.8631    0.0679    0.8630    0.0679    0.1634    1.8757
 15.000    0.9086    0.0700    0.9086    0.0700    0.9089    0.0700    0.9089    0.0700    0.9087    0.0700    0.9086    0.0700    1.2683    1.8803
 15.100    0.9558    0.0727    0.9558    0.0727    0.9561    0.0727    0.9561    0.0727    0.9559    0.0727    0.9558    0.0727    6.3140    1.9035
 15.200    1.0050    0.0763    1.0050    0.0763    1.0053    0.0763    1.0053    0.0763    1.0051    0.0763    1.0050    0.0763   20.1543    1.9776
 15.300    1.0568    0.0807    1.0568    0.0807    1.0571    0.0807    1.0570    0.0807    1.0569    0.0807    1.0568    0.0807   41.2486    2.1292
 15.400    1.1118    0.0862    1.1117    0.0862    1.1120    0.0862    1.1120    0.0862    1.1118    0.0862    1.1117    0.0862   54.1292    2.3281
 15.500    1.1707    0.0931    1.1707    0.0931    1.1710    0.0931    1.1710    0.0931    1.1708    0.0931    1.1707    0.0931   45.5443    2.4955
 15.600    1.2345    0.1016    1.2345    0.1016    1.2348    0.1016    1.2348    0.1016    1.2346    0.1016    1.2345    0.1016   24.5707    2.5858
 15.700    1.3045    0.1122    1.3044    0.1122    1.3047    0.1122    1.3047    0.1122    1.3045    0.1122    1.3044    0.1122    8.4992    2.6170
 15.800    1.3820    0.1256    1.3820    0.1256    1.3823    0.1256    1.3823    0.1256    1.3821    0.1256    1.3820    0.1256    1.8851    2.6239
 15.900    1.4690    0.1427    1.4690    0.1427    1.4693    0.1427    1.4693    0.1427    1.4691    0.1427    1.4690    0.1427    0.2684    2.6249
 16.000    1.5682    0.1646    1.5682    0.1646    1.5685    0.1646    1.5685    0.1646    1.5683    0.1646    1.5682    0.1646    0.0316    2.6250
 16.100    1.6829    0.1935    1.6829    0.1935    1.6832    0.1935    1.6832    0.1935    1.6830    0.1935    1.6829    0.1935    0.1017    2.6254
 16.200    1.8180    0.2323    1.8180    0.2323    1.8183    0.2323    1.8183    0.2323    1.8181    0.2323    1.8180    0.2323    0.9016    2.6287
 16.300    1.9803    0.2860    1.9803    0.2860    1.9806    0.2860    1.9806    0.2860    1.9804    0.2860    1.9803    0.2860    5.1994    2.6478
 16.400    2.1796    0.3627    2.1796    0.3627    2.1799    0.3627    2.1799    0.3627    2.1797    0.3627    2.1796    0.3627   19.2263    2.7185
 16.500    2.4307    0.4774    2.4307    0.4774    2.4310    0.4774    2.4310    0.4774    2.4308    0.4774    2.4307    0.4774   45.5944    2.8860
 16.600    2.7557    0.6586    2.7556    0.6586    2.7559    0.6586    2.7559    0.6586    2.7557    0.6586    2.7556    0.6586   69.4451    3.1412
 16.700    3.1866    0.9661    3.1866    0.9661    3.1869    0.9661    3.1869    0.9661    3.1867    0.9661    3.1866    0.9661   68.7435    3.3939
 16.800    3.7594    1.5377    3.7594    1.5377    3.7597    1.5377    3.7597    1.5377    3.7595    1.5377    3.7594    1.5377   48.3169    3.5714
 16.900    4.4339    2.7149    4.4338    2.7149    4.4341    2.7149    4.4341    2.7149    4.4339    2.7149    4.4338    2.7149   36.9437    3.7072
 17.000    4.5413    5.2107    4.5412    5.2107    4.5415    5.2107    4.5415    5.2107    4.5413    5.2107    4.5412    5.2107   47.3695    3.8813
 17.100    1.3617    8.1482    1.3617    8.1482    1.3620    8.1482    1.3620    8.1482    1.3618    8.1482    1.3617    8.1482   63.0787    4.1131
 17.200   -2.9364    6.1951   -2.9364    6.1951   -2.9361    6.1951   -2.9361    6.1951   -2.9363    6.1951   -2.9364    6.1951   64.7325    4.3510
 17.300   -3.4015    3.2495   -3.4015    3.2495   -3.4012    3.2495   -3.4012    3.2495   -3.4014    3.2495   -3.4015    3.2495   51.7797    4.5413
 17.400   -2.7595    1.7836   -2.7595    1.7836   -2.7592    1.7836   -2.7592    1.7836   -2.7594    1.7836   -2.7595    1.7836   33.2174    4.6633
 17.500   -2.1468    1.0886   -2.1468    1.0886   -2.1465    1.0886   -2.1465    1.0886   -2.1468    1.0886   -2.1468    1.0886   16.3290    4.7233
 17.600   -1.6812    0.7250   -1.6813    0.7250   -1.6810    0.7250   -1.6810    0.7250   -1.6812    0.7250   -1.6813    0.7250    5.6959    4.7443
 17.700   -1.3329    0.5153   -1.3329    0.5153   -1.3326    0.5153   -1.3326    0.5153   -1.3329    0.5153   -1.3329    0.5153    1.3347    4.7492
 17.800   -1.0671    0.3847   -1.0671    0.3847   -1.0668    0.3847   -1.0668    0.3847   -1.0670    0.3847   -1.0671    0.3847    0.2044    4.7499
 17.900   -0.8589    0.2983   -0.8589    0.2983   -0.8586    0.2983   -0.8586    0.2983   -0.8588    0.2983   -0.8589    0.2983    0.0202    4.7500
 18.000   -0.6920    0.2382   -0.6920    0.2382   -0.6917    0.2382   -0.6917    0.2382   -0.6919    0.2382   -0.6920    0.2382    0.0013    4.7500
 18.100   -0.5553    0.1949   -0.5553    0.1949   -0.5550    0.1949   -0.5550    0.1949   -0.5552    0.1949   -0.5553    0.1949    0.0002    4.7500
 18.200   -0.4413    0.1626   -0.4413    0.1626   -0.4410    0.1626   -0.4410    0.1626   -0.4412    0.1626   -0.4413    0.1626    0.0032    4.7500
 18.300   -0.3446    0.1380   -0.3447    0.1380   -0.3444    0.1380   -0.3444    0.1380   -0.3446    0.1380   -0.3447    0.1380    0.0456    4.7502
 18.400   -0.2617    0.1187   -0.2617    0.1187   -0.2614    0.1187   -0.2614    0.1187   -0.2616    0.1187   -0.2617    0.1187    0.4200    4.7517
 18.500   -0.1896    0.1033   -0.1896    0.1033   -0.1893    0.1033   -0.1893    0.1033   -0.1895    0.1033   -0.1896    0.1033    2.4928    4.7609
 18.600   -0.1263    0.0908   -0.1264    0.0908   -0.1260    0.0908   -0.1261    0.0908   -0.1263    0.0908   -0.1264    0.0908    9.6165    4.7962
 18.700   -0.0703    0.0806   -0.0703    0.0806   -0.0700    0.0806   -0.0700    0.0806   -0.0702    0.0806   -0.0703    0.0806   24.4935    4.8862
 18.800   -0.0203    0.0721   -0.0203    0.0721   -0.0200    0.0721   -0.0200    0.0721   -0.0202    0.0721   -0.0203    0.0721   42.4328    5.0422
 18.900    0.0247    0.0649    0.0247    0.0649    0.0250    0.0649    0.0250    0.0649    0.0248    0.0649    0.0247    0.0649   52.3464    5.2345
 19.000    0.0654    0.0588    0.0654    0.0588    0.0657    0.0588    0.0657    0.0588    0.0655    0.0588    0.0654    0.0588   48.1569    5.4115
 19.100    0.1025    0.0536    0.1024    0.0536    0.1027    0.0536    0.1027    0.0536    0.1025    0.0536    0.1024    0.0536   33.4550    5.5345
 19.200    0.1363    0.0491    0.1363    0.0491    0.1366    0.0491    0.1366    0.0491    0.1364    0.0491    0.1363    0.0491   16.9834    5.5969
 19.300    0.1675    0.0452    0.1674    0.0452    0.1677    0.0452    0.1677    0.0452    0.1675    0.0452    0.1674    0.0452    5.9952    5.6189
 19.400    0.1962    0.0417    0.1961    0.0417    0.1965    0.0417    0.1965    0.0417    0.1962    0.0417    0.1961    0.0417    1.4159    5.6241
 19.500    0.2228    0.0387    0.2227    0.0387    0.2230    0.0387    0.2230    0.0387    0.2228    0.0387    0.2227    0.0387    0.2188    5.6249
 19.600    0.2475    0.0360    0.2474    0.0360    0.2478    0.0360    0.2478    0.0360    0.2475    0.0360    0.2474    0.0360    0.0219    5.6250
 19.700    0.2705    0.0336    0.2705    0.0336    0.2708    0.0336    0.2708    0.0336    0.2706    0.0336    0.2705    0.0336    0.0014    5.6250
 19.800    0.2921    0.0315    0.2920    0.0315    0.2924    0.0315    0.2924    0.0315    0.2922    0.0315    0.2921    0.0315    0.0001    5.6250
 19.900    0.3123    0.0295    0.3123    0.0295    0.3126    0.0295    0.3126    0.0295    0.3124    0.0295    0.3123    0.0295    0.0000    5.6250
 20.000    0.3313    0.0278    0.3313    0.0278    0.3316    0.0278    0.3316    0.0278    0.3314    0.0278    0.3313    0.0278    0.0000    5.6250
 20.100    0.3492    0.0262    0.3492    0.0262    0.3495    0.0262    0.3495    0.0262    0.3493    0.0262    0.3492    0.0262    0.0000    5.6250
 20.200    0.3661    0.0248    0.3661    0.0248    0.3664    0.0248    0.3664    0.0248    0.3662    0.0248    0.3661    0.0248    0.0000    5.6250
 20.300    0.3821    0.0234    0.3821    0.0234    0.3824    0.0234    0.3824    0.0234    0.3822    0.0234    0.3821    0.0234    0.0000    5.6250
 20.400    0.3973    0.0222    0.3973    0.0222    0.3976    0.0222    0.3976    0.0222    0.3974    0.0222    0.3973    0.0222    0.0000    5.6250
 20.500    0.4117    0.0211    0.4117    0.0211    0.4120    0.0211    0.4120    0.0211    0.4118    0.0211    0.4117    0.0211    0.0000    5.6250
 20.600    0.4254    0.0201    0.4254    0.0201    0.4257    0.0201    0.4257    0.0201    0.4255    0.0201    0.4254    0.0201    0.0000    5.6250
 20.700    0.4385    0.0192    0.4384    0.0192    0.4388    0.0192    0.4388    0.0192    0.4385    0.0192    0.4384    0.0192    0.0000    5.6250
 20.800    0.4509    0.0183    0.4509    0.0183    0.4512    0.0183    0.4512    0.0183    0.4510    0.0183    0.4509    0.0183    0.0000    5.6250
 20.900    0.4628    0.0175    0.4628    0.0175    0.4631    0.0175    0.4631    0.0175    0.4629    0.0175    0.4628    0.0175    0.0000    5.6250
 21.000    0.4742    0.0168    0.4742    0.0168    0.4745    0.0168    0.4745    0.0168    0.4743    0.0168    0.4742    0.0168    0.0000    5.6250
 21.100    0.4851    0.0161    0.4851    0.0161    0.4854    0.0161    0.4854    0.0161    0.4852    0.0161    0.4851    0.0161    0.0000    5.6250
 21.200    0.4956    0.0154    0.4956    0.0154    0.4959    0.0154    0.4959    0.0154    0.4957    0.0154    0.4956    0.0154    0.0000    5.6250
 21.300    0.5056    0.0148    0.5056    0.0148    0.5060    0.0148    0.5059    0.0148    0.5057    0.0148    0.5056    0.0148    0.0000    5.6250
 21.400    0.5153    0.0142    0.5153    0.0142    0.5156    0.0142    0.5156    0.0142    0.5154    0.0142    0.5153    0.0142    0.0000    5.6250
 21.500    0.5246    0.0137    0.5246    0.0137    0.5249    0.0137    0.5249    0.0137    0.5247    0.0137    0.5246    0.0137    0.0000    5.6250
 21.600    0.5335    0.0132    0.5335    0.0132    0.5338    0.0132    0.5338    0.0132    0.5336    0.0132    0.5335    0.0132    0.0000    5.6250
 21.700    0.5422    0.0127    0.5421    0.0127    0.5425    0.0127    0.5425    0.0127    0.5422    0.0127    0.5421    0.0127    0.0000    5.6250
 21.800    0.5505    0.0123    0.5504    0.0123    0.5508    0.0123    0.5508    0.0123    0.5505    0.0123    0.5504    0.0123    0.0000    5.6250
 21.900    0.5585    0.0118    0.5585    0.0118    0.5588    0.0118    0.5588    0.0118    0.5586    0.0118    0.5585    0.0118    0.0000    5.6250
 22.000    0.5662    0.0114    0.5662    0.0114    0.5666    0.0114    0.5666    0.0114    0.5663    0.0114    0.5662    0.0114    0.0000    5.6250
 22.100    0.5737    0.0111    0.5737    0.0111    0.5741    0.0111    0.5740    0.0111    0.5738    0.0111    0.5737    0.0111    0.0000    5.6250
 22.200    0.5810    0.0107    0.5810    0.0107    0.5813    0.0107    0.5813    0.0107    0.5811    0.0107    0.5810    0.0107    0.0000    5.6250
 22.300    0.5880    0.0104    0.5880    0.0104    0.5883    0.0104    0.5883    0.0104    0.5881    0.0104    0.5880    0.0104    0.0000    5.6250
 22.400    0.5948    0.0101    0.5948    0.0101    0.5951    0.0101    0.5951    0.0101    0.5949    0.0101    0.5948    0.0101    0.0000    5.6250
 22.500    0.6014    0.0097    0.6014    0.0097    0.6017    0.0097    0.6017    0.0097    0.6015    0.0097    0.6014    0.0097    0.0000    5.6250
 22.600    0.6078    0.0095    0.6078    0.0095    0.6081    0.0095    0.6081    0.0095    0.6079    0.0095    0.6078    0.0095    0.0000    5.6250
 22.700    0.6140    0.0092    0.6140    0.0092    0.6143    0.0092    0.6143    0.0092    0.6141    0.0092    0.6140    0.0092    0.0000    5.6250
 22.800    0.6200    0.0089    0.6200    0.0089    0.6203    0.0089    0.6203    0.0089    0.6201    0.0089    0.6200    0.0089    0.0005    5.6250
 22.900    0.6259    0.0087    0.6258    0.0087    0.6262    0.0087    0.6262    0.0087    0.6259    0.0087    0.6258    0.0087    0.0095    5.6250
 23.000    0.6316    0.0084    0.6315    0.0084    0.6319    0.0084    0.6319    0.0084    0.6316    0.0084    0.6315    0.0084    0.1091    5.6254
 23.100    0.6371    0.0082    0.6371    0.0082    0.6374    0.0082    0.6374    0.0082    0.6372    0.0082    0.6371    0.0082    0.8001    5.6284
 23.200    0.6425    0.0080    0.6424    0.0080    0.6428    0.0080    0.6428    0.0080    0.6425    0.0080    0.6424    0.0080    3.7609    5.6422
 23.300    0.6477    0.0078    0.6477    0.0078    0.6480    0.0078    0.6480    0.0078    0.6478    0.0078    0.6477    0.0078   11.3345    5.6839
 23.400    0.6528    0.0076    0.6528    0.0076    0.6531    0.0076    0.6531    0.0076    0.6529    0.0076    0.6528    0.0076   21.9027    5.7643
 23.500    0.6578    0.0074    0.6577    0.0074    0.6581    0.0074    0.6581    0.0074    0.6578    0.0074    0.6577    0.0074   27.1375    5.8641
 23.600    0.6626    0.0072    0.6626    0.0072    0.6629    0.0072    0.6629    0.0072    0.6627    0.0072    0.6626    0.0072   21.5587    5.9433
 23.700    0.6673    0.0070    0.6673    0.0070    0.6677    0.0070    0.6677    0.0070    0.6674    0.0070    0.6673    0.0070   10.9814    5.9820
 23.800    0.6719    0.0068    0.6719    0.0068    0.6723    0.0068    0.6723    0.0068    0.6720    0.0068    0.6719    0.0068    3.5865    5.9974
 23.900    0.6764    0.0067    0.6764    0.0067    0.6767    0.0067    0.6767    0.0067    0.6765    0.0067    0.6764    0.0067    0.7510    5.9984
