# Macroscopic dielectric function obtained with the BS equation.
#  RPA L0 with KS energies and KS wavefunctions     LOCAL FIELD EFFECTS INCLUDED
# RESONANT-ONLY calculation
# Coulomb term constructed with full W(G1,G2)
# Scissor operator energy =  0.8000 [eV]
# nstates included in the diagonalization = 768
# npweps  = 51
# npwwfn  = 137
# nbands  = 8
# loband  = 2
# loband(spin=2) = 2
# nkibz   = 2
# nkbz    = 32
# Lorentzian broadening =  0.1000 [eV]
# List of q-points for the optical limit:
# q =  0.938821, 0.000000, 0.000000, [Reduced coords] 
# q =  0.000000, 0.938821, 0.000000, [Reduced coords] 
# q =  0.000000, 0.000000, 0.938821, [Reduced coords] 
# q =  0.000000, 0.813043, 0.813043, [Reduced coords] 
# q =  0.813043, 0.000000, 0.813043, [Reduced coords] 
# q =  0.813043, 0.813043, 0.000000, [Reduced coords] 
# omega [eV]    RE(eps(q=1)) IM(eps(q=1) RE(eps(q=2) ) ... DOS   IDOS
  0.000   23.4758    0.0000   23.4811    0.0000   23.4643    0.0000   23.4721    0.0000   23.4723   -0.0000   23.4737   -0.0000    0.0000    0.0000
  0.100   23.4928    0.0342   23.4981    0.0342   23.4813    0.0341   23.4891    0.0342   23.4893    0.0342   23.4907    0.0342    0.0000    0.0000
  0.200   23.5440    0.0687   23.5494    0.0688   23.5325    0.0686   23.5404    0.0687   23.5405    0.0687   23.5420    0.0687    0.0000    0.0000
  0.300   23.6300    0.1039   23.6354    0.1040   23.6183    0.1038   23.6263    0.1039   23.6264    0.1039   23.6279    0.1039    0.0000    0.0000
  0.400   23.7515    0.1402   23.7571    0.1403   23.7397    0.1400   23.7478    0.1401   23.7479    0.1401   23.7494    0.1402    0.0000    0.0000
  0.500   23.9099    0.1779   23.9155    0.1780   23.8978    0.1777   23.9061    0.1778   23.9062    0.1778   23.9077    0.1779    0.0000    0.0000
  0.600   24.1067    0.2175   24.1125    0.2177   24.0943    0.2172   24.1028    0.2174   24.1029    0.2174   24.1045    0.2174    0.0000    0.0000
  0.700   24.3441    0.2595   24.3500    0.2597   24.3314    0.2591   24.3401    0.2594   24.3402    0.2594   24.3418    0.2594    0.0000    0.0000
  0.800   24.6247    0.3044   24.6308    0.3046   24.6116    0.3039   24.6206    0.3043   24.6207    0.3042   24.6223    0.3043    0.0000    0.0000
  0.900   24.9516    0.3529   24.9580    0.3531   24.9380    0.3523   24.9474    0.3527   24.9475    0.3527   24.9492    0.3528    0.0000    0.0000
  1.000   25.3289    0.4057   25.3356    0.4060   25.3148    0.4051   25.3245    0.4055   25.3246    0.4055   25.3264    0.4056    0.0000    0.0000
  1.100   25.7613    0.4639   25.7683    0.4642   25.7465    0.4631   25.7567    0.4637   25.7568    0.4636   25.7586    0.4637    0.0000    0.0000
  1.200   26.2545    0.5284   26.2618    0.5288   26.2389    0.5276   26.2497    0.5282   26.2498    0.5282   26.2516    0.5282    0.0000    0.0000
  1.300   26.8155    0.6008   26.8233    0.6013   26.7990    0.5998   26.8104    0.6005   26.8105    0.6005   26.8124    0.6006    0.0000    0.0000
  1.400   27.4528    0.6827   27.4611    0.6833   27.4352    0.6816   27.4474    0.6824   27.4475    0.6824   27.4496    0.6825    0.0000    0.0000
  1.500   28.1770    0.7765   28.1858    0.7771   28.1581    0.7751   28.1712    0.7761   28.1713    0.7761   28.1734    0.7762    0.0000    0.0000
  1.600   29.0008    0.8848   29.0103    0.8856   28.9805    0.8833   28.9946    0.8844   28.9946    0.8844   28.9969    0.8845    0.0000    0.0000
  1.700   29.9404    1.0117   29.9507    1.0125   29.9184    1.0098   29.9337    1.0111   29.9337    1.0111   29.9362    1.0113    0.0000    0.0000
  1.800   31.0160    1.1619   31.0274    1.1630   30.9921    1.1597   31.0089    1.1613   31.0088    1.1613   31.0115    1.1615    0.0000    0.0000
  1.900   32.2538    1.3425   32.2662    1.3438   32.2274    1.3398   32.2459    1.3417   32.2458    1.3417   32.2487    1.3419    0.0000    0.0000
  2.000   33.6873    1.5629   33.7011    1.5644   33.6580    1.5596   33.6786    1.5620   33.6785    1.5619   33.6816    1.5622    0.0000    0.0000
  2.100   35.3610    1.8367   35.3765    1.8386   35.3282    1.8327   35.3514    1.8356   35.3511    1.8355   35.3545    1.8358    0.0000    0.0000
  2.200   37.3350    2.1840   37.3527    2.1864   37.2979    2.1790   37.3243    2.1827   37.3239    2.1825   37.3276    2.1829    0.0000    0.0000
  2.300   39.6924    2.6353   39.7127    2.6383   39.6498    2.6289   39.6802    2.6336   39.6796    2.6334   39.6838    2.6339    0.0000    0.0000
  2.400   42.5513    3.2388   42.5749    3.2428   42.5017    3.2304   42.5373    3.2366   42.5364    3.2363   42.5412    3.2369    0.0000    0.0000
  2.500   46.0857    4.0747   46.1138    4.0801   46.0268    4.0635   46.0692    4.0719   46.0681    4.0714   46.0734    4.0722    0.0000    0.0000
  2.600   50.5621    5.2848   50.5962    5.2924   50.4906    5.2691   50.5424    5.2809   50.5407    5.2801   50.5470    5.2812    0.0000    0.0000
  2.700   56.4089    7.1381   56.4515    7.1493   56.3197    7.1149   56.3848    7.1324   56.3822    7.1312   56.3897    7.1327    0.0016    0.0000
  2.800   64.3524   10.1964   64.4076   10.2142   64.2370   10.1594   64.3219   10.1875   64.3179   10.1853   64.3270   10.1876    0.1422    0.0005
  2.900   75.6917   15.7882   75.7666   15.8196   75.5354   15.7231   75.6513   15.7730   75.6449   15.7686   75.6565   15.7723    4.8997    0.0185
  3.000   92.7619   27.6226   92.8687   27.6873   92.5396   27.4888   92.7059   27.5923   92.6953   27.5822   92.7108   27.5894   69.0186    0.2722
  3.100  118.0423   58.4228  118.1889   58.5893  117.7373   58.0793  117.9661   58.3474  117.9511   58.3185  117.9716   58.3361  444.7199    1.9065
  3.200  123.0297  151.0847  123.0031  151.5316  123.0784  150.1615  123.0198  150.8835  123.0493  150.8040  123.0546  150.8505 1514.5917    7.4725
  3.300  -39.3349  193.7476  -39.7332  193.7183  -38.5119  193.8011  -39.1710  193.7283  -39.0814  193.7756  -39.1153  193.7767 2843.8305   17.9234
  3.400  -74.3287   78.8917  -74.4131   78.8256  -74.1540   79.0264  -74.2878   78.9047  -74.2814   78.9387  -74.2815   78.9347 2622.4959   27.5609
  3.500  -46.4243   36.1388  -46.4793   36.1262  -46.3115   36.1638  -46.4019   36.1353  -46.3950   36.1487  -46.3892   36.1510 1036.2194   31.3689
  3.600  -24.4583   21.7779  -24.5096   21.7781  -24.3539   21.7766  -24.4444   21.7692  -24.4306   21.7787  -24.4204   21.7842  161.8998   31.9639
  3.700   -7.8281   16.6993   -7.8758   16.7039   -7.7323   16.6887   -7.8244   16.6852   -7.8022   16.6970   -7.7855   16.7067   10.7638   32.0035
  3.800    6.8764   16.2405    6.8342   16.2503    6.9598   16.2186    6.8650   16.2148    6.8992   16.2351    6.9267   16.2535   24.4077   32.0932
  3.900   22.5322   20.4029   22.4988   20.4266   22.5956   20.3508   22.4958   20.3460   22.5499   20.3897   22.5958   20.4304  199.1813   32.8251
  4.000   41.9681   34.2471   41.9437   34.3201   42.0102   34.0894   41.8995   34.0882   41.9800   34.2073   42.0510   34.3187  706.9419   35.4231
  4.100   59.5277   78.8322   59.3939   79.0792   59.7973   78.3056   59.6266   78.3251   59.5948   78.7000   59.5638   79.0509 1559.2479   41.1532
  4.200  -14.9021  147.1429  -15.5830  146.9056  -13.4921  147.6102  -13.7915  147.3574  -14.5479  147.2485  -15.2656  147.1657 3163.4129   52.7786
  4.300  -77.5660   72.4686  -77.4862   72.0589  -77.7144   73.3063  -77.6459   73.0664  -77.5925   72.6809  -77.5631   72.3036 4226.6863   68.3113
  4.400  -59.1485   31.6562  -59.0229   31.5164  -59.3970   31.9416  -59.3253   31.8516  -59.2084   31.7299  -59.0969   31.6062 2560.6753   77.7216
  4.500  -41.1190   18.9780  -41.0406   18.9168  -41.2725   19.1014  -41.2382   19.0562  -41.1561   19.0085  -41.0759   18.9629  809.9100   80.6980
  4.600  -27.0299   16.2485  -26.9856   16.2087  -27.1145   16.3251  -27.1098   16.2906  -27.0502   16.2643  -26.9904   16.2459 1095.0244   84.7222
  4.700  -15.3707   22.3636  -15.3443   22.3154  -15.4115   22.4467  -15.4324   22.4020  -15.3770   22.3721  -15.3244   22.3689 3468.0244   97.4669
  4.800  -19.1695   40.0993  -19.1137   40.0524  -19.2331   40.2077  -19.2637   40.1209  -19.1488   40.1179  -19.1075   40.1516 6070.7514  119.7765
  4.900  -43.1382   33.2464  -43.0913   33.2286  -43.2342   33.3225  -43.1823   33.2051  -43.1517   33.3028  -43.1545   33.3191 4741.2687  137.2004
  5.000  -40.8367   14.5854  -40.8002   14.5755  -40.9231   14.6200  -40.8497   14.5714  -40.8683   14.6091  -40.8672   14.6129 1574.0822  142.9850
  5.100  -33.4869    7.8742  -33.4573    7.8682  -33.5556    7.8924  -33.4993    7.8707  -33.5114    7.8844  -33.5088    7.8858  249.5907  143.9022
  5.200  -27.9518    5.2513  -27.9267    5.2475  -28.0082    5.2621  -27.9646    5.2503  -27.9705    5.2568  -27.9674    5.2573   29.5532  144.0108
  5.300  -23.7138    4.0808  -23.6918    4.0785  -23.7623    4.0870  -23.7269    4.0800  -23.7289    4.0839  -23.7254    4.0844   77.0792  144.2941
  5.400  -20.1620    3.7228  -20.1416    3.7225  -20.2058    3.7247  -20.1757    3.7211  -20.1747    3.7245  -20.1709    3.7251  620.8122  146.5755
  5.500  -16.9150    4.4040  -16.8955    4.4076  -16.9562    4.3978  -16.9298    4.3990  -16.9261    4.4037  -16.9217    4.4053 2494.2617  155.7418
  5.600  -15.1073    7.5892  -15.0948    7.6019  -15.1336    7.5654  -15.1189    7.5749  -15.1140    7.5854  -15.1099    7.5904 4642.2546  172.8018
  5.700  -19.4980    8.3540  -19.4973    8.3561  -19.5014    8.3519  -19.4945    8.3440  -19.5008    8.3568  -19.5026    8.3610 3759.8439  186.6189
  5.800  -19.2440    4.0437  -19.2392    4.0431  -19.2558    4.0458  -19.2419    4.0407  -19.2495    4.0457  -19.2511    4.0471 1273.7400  191.2998
  5.900  -17.0927    2.3482  -17.0878    2.3478  -17.1043    2.3496  -17.0919    2.3470  -17.0976    2.3492  -17.0986    2.3498  179.4452  191.9593
  6.000  -15.3342    1.6730  -15.3297    1.6725  -15.3445    1.6743  -15.3340    1.6725  -15.3383    1.6737  -15.3390    1.6740   10.7910  191.9989
  6.100  -13.9221    1.3316  -13.9181    1.3310  -13.9311    1.3330  -13.9222    1.3314  -13.9256    1.3323  -13.9261    1.3324    0.4906  192.0007
  6.200  -12.7345    1.1350  -12.7311    1.1343  -12.7421    1.1366  -12.7346    1.1350  -12.7374    1.1356  -12.7378    1.1357    7.7232  192.0291
  6.300  -11.6910    1.0296  -11.6884    1.0287  -11.6970    1.0317  -11.6910    1.0298  -11.6934    1.0303  -11.6937    1.0304  112.9099  192.4441
  6.400  -10.7402    1.0356  -10.7384    1.0340  -10.7443    1.0391  -10.7399    1.0361  -10.7419    1.0366  -10.7422    1.0368  649.6116  194.8313
  6.500   -9.9739    1.2978   -9.9723    1.2943   -9.9773    1.3056   -9.9734    1.2993   -9.9754    1.3001   -9.9756    1.3004 1498.8079  200.3394
  6.600   -9.8786    1.3353   -9.8738    1.3313   -9.8888    1.3441   -9.8796    1.3374   -9.8818    1.3376   -9.8825    1.3381 1416.2413  205.5440
  6.700   -9.3419    0.8792   -9.3370    0.8775   -9.3527    0.8830   -9.3433    0.8801   -9.3451    0.8802   -9.3460    0.8804  563.0985  207.6133
  6.800   -8.6584    0.6924   -8.6542    0.6915   -8.6674    0.6944   -8.6594    0.6929   -8.6611    0.6930   -8.6619    0.6930  101.4604  207.9862
  6.900   -8.0349    0.6132   -8.0314    0.6126   -8.0426    0.6145   -8.0357    0.6135   -8.0372    0.6136   -8.0381    0.6135   72.6056  208.2530
  7.000   -7.4565    0.5832   -7.4534    0.5828   -7.4631    0.5842   -7.4569    0.5835   -7.4585    0.5835   -7.4594    0.5834  491.2289  210.0582
  7.100   -6.8999    0.6093   -6.8973    0.6089   -6.9056    0.6101   -6.9001    0.6096   -6.9016    0.6095   -6.9027    0.6094 1906.9277  217.0660
  7.200   -6.3887    0.7789   -6.3865    0.7784   -6.3935    0.7798   -6.3884    0.7794   -6.3901    0.7791   -6.3915    0.7788 4007.2706  231.7925
  7.300   -6.3058    1.0069   -6.3038    1.0060   -6.3100    1.0087   -6.3054    1.0090   -6.3070    1.0074   -6.3083    1.0057 4224.9990  247.3191
  7.400   -6.1112    0.6757   -6.1089    0.6750   -6.1160    0.6770   -6.1125    0.6771   -6.1125    0.6761   -6.1122    0.6750 1966.6481  254.5464
  7.500   -5.6391    0.5127   -5.6371    0.5123   -5.6433    0.5135   -5.6402    0.5133   -5.6403    0.5129   -5.6401    0.5125  368.4493  255.9004
  7.600   -5.1818    0.4587   -5.1801    0.4584   -5.1853    0.4594   -5.1826    0.4590   -5.1827    0.4589   -5.1827    0.4587   30.7300  256.0133
  7.700   -4.7426    0.4442   -4.7412    0.4439   -4.7455    0.4448   -4.7432    0.4444   -4.7434    0.4443   -4.7435    0.4443   85.2345  256.3266
  7.800   -4.3038    0.4544   -4.3027    0.4540   -4.3061    0.4550   -4.3043    0.4545   -4.3044    0.4546   -4.3045    0.4546  690.9199  258.8657
  7.900   -3.8457    0.4933   -3.8449    0.4928   -3.8473    0.4941   -3.8461    0.4933   -3.8461    0.4935   -3.8461    0.4936 2344.4025  267.4812
  8.000   -3.3421    0.5848   -3.3417    0.5842   -3.3428    0.5861   -3.3424    0.5848   -3.3423    0.5851   -3.3422    0.5855 3341.9599  279.7626
  8.100   -2.7614    0.8117   -2.7615    0.8104   -2.7611    0.8142   -2.7617    0.8115   -2.7613    0.8121   -2.7609    0.8132 2476.0813  288.8621
  8.200   -2.2360    1.4575   -2.2358    1.4541   -2.2364    1.4638   -2.2363    1.4568   -2.2358    1.4583   -2.2362    1.4617 2887.1488  299.4722
  8.300   -2.7246    1.9767   -2.7205    1.9744   -2.7321    1.9813   -2.7238    1.9758   -2.7251    1.9780   -2.7300    1.9798 5439.6610  319.4625
  8.400   -2.3810    1.5268   -2.3774    1.5275   -2.3878    1.5255   -2.3801    1.5271   -2.3818    1.5269   -2.3860    1.5255 8445.0427  350.4975
  8.500   -1.5730    1.9746   -1.5719    1.9768   -1.5747    1.9700   -1.5735    1.9749   -1.5724    1.9741   -1.5740    1.9711 *********  393.0390
  8.600   -1.6239    2.8183   -1.6240    2.8184   -1.6229    2.8184   -1.6257    2.8168   -1.6229    2.8194   -1.6216    2.8188 *********  440.4206
  8.700   -1.3306    2.9132   -1.3306    2.9166   -1.3299    2.9066   -1.3321    2.9090   -1.3298    2.9127   -1.3288    2.9131 *********  477.9969
  8.800   -0.0163    4.1796   -0.0207    4.1819   -0.0067    4.1746   -0.0173    4.1664   -0.0131    4.1799   -0.0106    4.1885 5803.1793  499.3232
  8.900   -1.4240    8.9799   -1.4364    8.9772   -1.3954    8.9854   -1.3871    8.9622   -1.4174    8.9842   -1.4431    8.9975 2343.8018  507.9365
  9.000   -8.0834    6.7090   -8.0813    6.6943   -8.0875    6.7430   -8.0748    6.7435   -8.0861    6.7184   -8.0923    6.6940  742.3929  510.6648
  9.100   -7.5021    2.7438   -7.4957    2.7384   -7.5164    2.7564   -7.5105    2.7565   -7.5067    2.7473   -7.5010    2.7384  239.2382  511.5440
  9.200   -6.1619    1.4351   -6.1570    1.4328   -6.1727    1.4402   -6.1678    1.4398   -6.1654    1.4366   -6.1614    1.4332   96.1677  511.8974
  9.300   -5.1760    0.9444   -5.1723    0.9432   -5.1840    0.9471   -5.1797    0.9466   -5.1786    0.9452   -5.1762    0.9436   25.1359  511.9897
  9.400   -4.4153    0.7404   -4.4124    0.7397   -4.4215    0.7422   -4.4176    0.7418   -4.4173    0.7410   -4.4159    0.7400    2.7505  511.9999
  9.500   -3.7573    0.6807   -3.7549    0.6802   -3.7621    0.6821   -3.7586    0.6816   -3.7588    0.6812   -3.7582    0.6805    3.4993  512.0127
  9.600   -3.1105    0.7494   -3.1087    0.7489   -3.1142    0.7506   -3.1111    0.7501   -3.1116    0.7498   -3.1116    0.7493   67.7988  512.2619
  9.700   -2.3913    1.0522   -2.3899    1.0516   -2.3939    1.0537   -2.3912    1.0528   -2.3920    1.0528   -2.3925    1.0523  584.5150  514.4099
  9.800   -1.6972    2.0494   -1.6961    2.0481   -1.6986    2.0518   -1.6961    2.0498   -1.6975    2.0503   -1.6984    2.0498 2388.0290  522.8201
  9.900   -2.8943    3.6138   -2.8922    3.6126   -2.8965    3.6180   -2.8921    3.6160   -2.8949    3.6156   -2.8961    3.6143 5155.8265  544.9253
 10.000   -3.7629    2.4413   -3.7621    2.4404   -3.7646    2.4448   -3.7618    2.4423   -3.7637    2.4427   -3.7646    2.4429 6928.3122  554.4732
