# GW Macroscopic dielectric function without local field effects 
# Scissor operator energy =  0.8000 [eV]
# Tolerance = -0.0010 0.0000
# npweps  = 51
# npwwfn  = 169
# nbands  = 8
# loband  = 2
# nkibz   = 8
# nkbz    = 8
# Lorentzian broadening =  0.1000 [eV]
# List of q-points for the optical limit:
# q =  0.938821, 0.000000, 0.000000, [Reduced coords] 
# q =  0.000000, 0.938821, 0.000000, [Reduced coords] 
# q =  0.000000, 0.000000, 0.938821, [Reduced coords] 
# q =  0.000000, 0.813043, 0.813043, [Reduced coords] 
# q =  0.813043, 0.000000, 0.813043, [Reduced coords] 
# q =  0.813043, 0.813043, 0.000000, [Reduced coords] 
# omega [eV]    RE(eps(q=1)) IM(eps(q=1) RE(eps(q=2) ) ... DOS   IDOS
  0.000   38.0494    0.0000   37.2269    0.0000   35.8190    0.0000   31.7755    0.0000   32.8564    0.0000   33.4225    0.0000    0.0000    0.0000
  0.100   38.0738    0.0491   37.2508    0.0478   35.8417    0.0456   31.7949    0.0390   32.8767    0.0407   33.4432    0.0415    0.0000    0.0000
  0.200   38.1474    0.0985   37.3225    0.0961   35.9100    0.0915   31.8533    0.0783   32.9377    0.0818   33.5055    0.0834    0.0000    0.0000
  0.300   38.2706    0.1489   37.4427    0.1452   36.0245    0.1382   31.9512    0.1182   33.0400    0.1235   33.6098    0.1260    0.0000    0.0000
  0.400   38.4447    0.2005   37.6124    0.1955   36.1861    0.1862   32.0894    0.1591   33.1844    0.1663   33.7571    0.1696    0.0000    0.0000
  0.500   38.6710    0.2539   37.8331    0.2476   36.3963    0.2357   32.2690    0.2014   33.3721    0.2105   33.9486    0.2147    0.0000    0.0000
  0.600   38.9517    0.3096   38.1068    0.3018   36.6568    0.2874   32.4917    0.2455   33.6048    0.2566   34.1859    0.2617    0.0000    0.0000
  0.700   39.2892    0.3681   38.4358    0.3589   36.9702    0.3417   32.7592    0.2917   33.8845    0.3050   34.4713    0.3111    0.0000    0.0000
  0.800   39.6866    0.4301   38.8234    0.4194   37.3391    0.3992   33.0742    0.3407   34.2138    0.3562   34.8072    0.3634    0.0000    0.0000
  0.900   40.1480    0.4964   39.2733    0.4840   37.7673    0.4607   33.4395    0.3929   34.5958    0.4108   35.1968    0.4191    0.0000    0.0000
  1.000   40.6778    0.5678   39.7899    0.5537   38.2589    0.5268   33.8586    0.4489   35.0341    0.4696   35.6440    0.4791    0.0000    0.0000
  1.100   41.2815    0.6453   40.3786    0.6292   38.8190    0.5986   34.3358    0.5097   35.5333    0.5333   36.1533    0.5441    0.0000    0.0000
  1.200   41.9659    0.7301   41.0459    0.7119   39.4538    0.6771   34.8761    0.5760   36.0987    0.6029   36.7302    0.6151    0.0000    0.0000
  1.300   42.7388    0.8237   41.7996    0.8032   40.1705    0.7637   35.4856    0.6490   36.7367    0.6795   37.3812    0.6933    0.0000    0.0000
  1.400   43.6098    0.9278   42.6488    0.9047   40.9779    0.8600   36.1714    0.7300   37.4549    0.7645   38.1140    0.7802    0.0000    0.0000
  1.500   44.5901    1.0445   43.6047    1.0186   41.8865    0.9679   36.9423    0.8206   38.2624    0.8598   38.9380    0.8775    0.0000    0.0000
  1.600   45.6936    1.1767   44.6808    1.1475   42.9089    1.0900   37.8086    0.9228   39.1702    0.9673   39.8646    0.9874    0.0000    0.0000
  1.700   46.9371    1.3277   45.8935    1.2948   44.0607    1.2295   38.7830    1.0392   40.1919    1.0900   40.9075    1.1127    0.0000    0.0000
  1.800   48.3412    1.5020   47.2628    1.4649   45.3606    1.3904   39.8811    1.1732   41.3439    1.2312   42.0835    1.2571    0.0000    0.0000
  1.900   49.9313    1.7054   48.8136    1.6634   46.8323    1.5780   41.1219    1.3289   42.6465    1.3956   43.4135    1.4252    0.0000    0.0000
  2.000   51.7395    1.9455   50.5773    1.8979   48.5051    1.7995   42.5295    1.5121   44.1251    1.5893   44.9236    1.6233    0.0000    0.0000
  2.100   53.8062    2.2328   52.5935    2.1785   50.4164    2.0643   44.1340    1.7304   45.8121    1.8204   46.6469    1.8599    0.0000    0.0000
  2.200   56.1839    2.5818   54.9135    2.5195   52.6143    2.3859   45.9745    1.9944   47.7490    2.1004   48.6261    2.1468    0.0000    0.0000
  2.300   58.9413    3.0128   57.6046    2.9410   55.1619    2.7830   48.1019    2.3192   49.9903    2.4454   50.9172    2.5006    0.0000    0.0000
  2.400   62.1705    3.5562   60.7571    3.4728   58.1442    3.2834   50.5842    2.7266   52.6089    2.8792   53.5954    2.9460    0.0000    0.0000
  2.500   65.9981    4.2575   64.4956    4.1599   61.6776    3.9292   53.5145    3.2496   55.7048    3.4375   56.7638    3.5202    0.0000    0.0000
  2.600   70.6034    5.1889   68.9961    5.0737   65.9271    4.7868   57.0239    3.9403   59.4194    4.1771   60.5688    4.2827    0.0000    0.0000
  2.700   76.2488    6.4707   74.5174    6.3333   71.1343    5.9669   61.3033    4.8846   63.9592    5.1923   65.2248    5.3323    0.0000    0.0000
  2.800   83.3353    8.3162   81.4552    8.1508   77.6682    7.6659   66.6429    6.2340   69.6395    6.6498   71.0605    6.8460    0.0000    0.0000
  2.900   92.5055   11.1355   90.4454   10.9350   86.1208   10.2604   73.5046    8.2773   76.9649    8.8702   78.6044    9.1666    0.0003    0.0000
  3.000  104.8487   15.8042  102.5682   15.5629   97.4954   14.5525   82.6661   11.6254   86.7893   12.5358   88.7562   13.0340    0.0232    0.0001
  3.100  122.2973   24.4757  119.7422   24.2015  113.5771   22.5019   95.4982   17.7632  100.6290   19.3166  103.1170   20.2926    0.6884    0.0026
  3.200  148.0553   43.5393  145.1109   43.3196  137.3955   39.8648  114.2654   31.0411  121.0327   34.1350  124.3051   36.5093    8.3263    0.0332
  3.300  180.9179   95.6390  176.7922   95.5341  169.0672   87.1679  138.2477   66.3713  147.7289   74.4466  150.4704   81.7122   42.4422    0.1892
  3.400  145.8536  211.6781  143.9140  211.4724  140.1603  203.5917  126.1804  144.3368  123.5234  171.5336  108.9774  179.9567   92.9900    0.5309
  3.500   -7.1879  210.1994  -20.6743  203.3203  -16.8067  194.7334   13.9195  174.6961   -9.4494  161.4487  -12.3816  145.2873   87.4440    0.8523
  3.600  -22.2734  103.7976  -25.7489   95.5539  -27.8362   92.3068  -18.6073   87.1775  -10.7828   77.0251   -2.4364   70.8393   36.8485    0.9877
  3.700   27.0270   79.4084   21.6740   70.6047   15.7939   63.4860   17.4557   58.8995   28.1795   59.4750   36.6816   57.9338   24.3853    1.0773
  3.800   59.5007  123.5764   57.6366  104.2223   54.1271   85.9067   45.2482   81.7406   54.5790   90.3265   66.1627   90.1951   59.9492    1.2976
  3.900  -17.3417  165.6139    4.6394  153.9111   20.4724  143.9760    5.8095  108.2488    9.2823  124.3804   23.2028  143.3294   79.3182    1.5891
  4.000  -37.7033   94.0288  -25.0256   99.5452  -17.5677   96.1230    2.0056   71.8070   -7.1566   81.8322  -13.6236   98.4758   57.3419    1.7998
  4.100    1.1338   83.5779    6.0179   93.8899   17.2523   92.4855   26.2407   82.0117   20.1707   86.8191    3.1147   93.1710   57.4819    2.0111
  4.200   10.7493  135.6232   -0.8940  146.2563    1.3333  150.8182   12.7053  127.6180    0.2281  130.4623   -5.3504  122.0690   72.2671    2.2766
  4.300  -75.3279  129.3574  -81.3474  117.1017  -81.6032  116.3764  -60.0988  107.7361  -61.4484   99.0275  -59.7643   95.5975   61.9413    2.5043
  4.400  -68.5208   77.1509  -65.0362   67.4804  -64.4233   62.8472  -50.0239   60.7383  -46.4504   61.0131  -43.1751   59.5241   66.3323    2.7480
  4.500  -64.3606   64.4096  -55.7126   64.0528  -47.9059   62.3584  -41.7625   51.7385  -38.9616   56.0676  -32.5872   61.0657   91.4333    3.0841
  4.600  -53.7734   47.8663  -56.0681   47.1345  -56.3640   48.9816  -32.5320   38.3406  -34.2814   44.0280  -35.1892   51.0199   80.2019    3.3788
  4.700  -40.4264   48.9837  -38.9793   37.1841  -41.3120   31.6977  -15.5189   35.2043  -18.9780   44.4441  -19.8509   51.0385   51.0446    3.5664
  4.800  -54.5461   50.5380  -31.7206   50.9216  -22.2027   35.3547   -5.0574   54.5150  -22.9003   54.5020  -31.8616   66.8354   46.1279    3.7359
  4.900  -49.6413   29.5514  -47.6233   41.4871  -28.0866   53.7322  -29.8109   66.4573  -32.5308   57.8838  -48.0879   48.9312   43.4036    3.8954
  5.000  -35.4597   21.7682  -37.0238   26.0289  -37.7059   35.6688  -41.2042   40.1101  -40.8051   36.9908  -40.7872   29.8932   23.8610    3.9831
  5.100  -19.0107   23.5632  -19.4518   25.4916  -20.4489   29.2328  -23.7420   28.7163  -23.9063   27.3923  -23.5057   24.9091   18.3907    4.0507
  5.200   -5.0250   41.6762   -3.7473   43.7251   -3.8254   46.8920   -6.7265   40.2266   -7.2666   39.0157   -8.3920   37.3064   57.9513    4.2636
  5.300  -28.9578   69.0966  -30.8669   77.5693  -31.7430   82.0138  -23.8986   67.5649  -24.2182   65.3926  -23.3179   58.6568   96.5938    4.6186
  5.400  -47.7737   44.8142  -57.8102   45.3607  -64.6491   47.6729  -45.3080   43.6405  -41.0660   43.3490  -33.2818   43.3193   77.3375    4.9028
  5.500  -39.3937   42.8597  -46.0048   32.8671  -52.5543   27.9772  -32.1683   36.6507  -30.3634   43.9203  -28.1500   52.4002   74.7685    5.1776
  5.600  -54.4043   41.6575  -47.7084   33.2336  -47.0429   24.1226  -41.5551   46.8489  -50.3530   48.9477  -54.9468   53.0916   80.5547    5.4736
  5.700  -52.6668   24.7318  -45.6440   23.8748  -40.1166   18.5560  -47.5680   30.3187  -52.3442   27.1823  -58.0341   26.9074   53.5040    5.6621
  5.800  -49.0355   22.9659  -44.4913   25.5799  -34.1330   25.0679  -45.3052   28.8408  -45.9713   23.1883  -48.2693   19.4793   42.9508    5.8462
  5.900  -50.6670   14.7108  -49.4493   18.7117  -47.3016   25.4514  -50.6230   19.0083  -48.2760   18.4959  -48.0936   16.1722   33.0199    5.8917
