# Macroscopic dielectric function obtained with the BS equation.
#  RPA L0 with KS energies and KS wavefunctions     LOCAL FIELD EFFECTS INCLUDED
# RESONANT-ONLY calculation
# Coulomb term constructed with full W(G1,G2)
# Scissor operator energy =  0.8000 [eV]
# Tolerance = -0.0010 0.0000
# npweps  = 51
# npwwfn  = 169
# nbands  = 8
# loband  = 2
# nkibz   = 8
# nkbz    = 8
# Lorentzian broadening =  0.1000 [eV]
# List of q-points for the optical limit:
# q =  0.938821, 0.000000, 0.000000, [Reduced coords] 
# q =  0.000000, 0.938821, 0.000000, [Reduced coords] 
# q =  0.000000, 0.000000, 0.938821, [Reduced coords] 
# q =  0.000000, 0.813043, 0.813043, [Reduced coords] 
# q =  0.813043, 0.000000, 0.813043, [Reduced coords] 
# q =  0.813043, 0.813043, 0.000000, [Reduced coords] 
# omega [eV]    RE(eps(q=1)) IM(eps(q=1) RE(eps(q=2) ) ... 
  0.000   46.6182    0.0000   45.5721    0.0000   43.6854    0.0000   38.4929    0.0000   39.8902    0.0000   40.5497    0.0000
  0.100   46.6642    0.0927   45.6170    0.0903   43.7277    0.0851   38.5286    0.0719   39.9278    0.0754   40.5878    0.0766
  0.200   46.8031    0.1865   45.7522    0.1817   43.8553    0.1714   38.6364    0.1448   40.0408    0.1518   40.7025    0.1541
  0.300   47.0365    0.2828   45.9795    0.2755   44.0697    0.2598   38.8176    0.2195   40.2308    0.2302   40.8953    0.2336
  0.400   47.3675    0.3829   46.3019    0.3729   44.3737    0.3516   39.0744    0.2969   40.5002    0.3115   41.1687    0.3161
  0.500   47.8006    0.4882   46.7237    0.4755   44.7714    0.4482   39.4102    0.3783   40.8524    0.3969   41.5262    0.4028
  0.600   48.3416    0.6004   47.2506    0.5847   45.2681    0.5511   39.8294    0.4649   41.2922    0.4878   41.9724    0.4949
  0.700   48.9984    0.7213   47.8903    0.7025   45.8708    0.6618   40.3377    0.5579   41.8256    0.5855   42.5136    0.5940
  0.800   49.7805    0.8533   48.6521    0.8311   46.5884    0.7826   40.9424    0.6592   42.4603    0.6920   43.1575    0.7019
  0.900   50.7003    0.9990   49.5479    0.9730   47.4319    0.9159   41.6526    0.7707   43.2059    0.8093   43.9136    0.8206
  1.000   51.7728    1.1619   50.5925    1.1317   48.4149    1.0646   42.4795    0.8949   44.0743    0.9399   44.7941    0.9529
  1.100   53.0168    1.3460   51.8042    1.3111   49.5545    1.2325   43.4370    1.0348   45.0802    1.0873   45.8137    1.1020
  1.200   54.4557    1.5568   53.2058    1.5165   50.8718    1.4246   44.5424    1.1944   46.2419    1.2556   46.9909    1.2720
  1.300   56.1189    1.8012   54.8260    1.7546   52.3933    1.6470   45.8174    1.3787   47.5824    1.4500   48.3487    1.4683
  1.400   58.0435    2.0883   56.7008    2.0345   54.1525    1.9079   47.2892    1.5944   49.1305    1.6777   49.9161    1.6980
  1.500   60.2767    2.4305   58.8766    2.3682   56.1921    2.2183   48.9925    1.8504   50.9232    1.9483   51.7301    1.9706
  1.600   62.8797    2.8446   61.4130    2.7723   58.5670    2.5936   50.9720    2.1589   53.0079    2.2746   53.8381    2.2989
  1.700   65.9328    3.3547   64.3886    3.2701   61.3495    3.0549   53.2863    2.5371   55.4468    2.6751   56.3023    2.7012
  1.800   69.5437    3.9951   67.9088    3.8957   64.6361    3.6332   56.0135    3.0098   58.3230    3.1761   59.2057    3.2036
  1.900   73.8592    4.8175   72.1175    4.6998   68.5588    4.3744   59.2599    3.6138   61.7499    3.8173   62.6608    3.8449
  2.000   79.0859    5.9017   77.2173    5.7612   73.3022    5.3497   63.1744    4.4061   65.8863    4.6594   66.8252    4.6851
  2.100   85.5221    7.3770   83.5016    7.2078   79.1330    6.6737   67.9715    5.4786   70.9613    5.8013   71.9253    5.8203
  2.200   93.6159    9.4639   91.4115    9.2584   86.4506    8.5419   73.9719    6.9878   77.3178    7.4111   78.2986    7.4138
  2.300  104.0687   12.5648  101.6397   12.3138   95.8791   11.3093   81.6762    9.2184   85.4921    9.7954   86.4705    9.7607
  2.400  118.0359   17.4768  115.3307   17.1722  108.4439   15.6762   91.9060   12.7332   96.3664   13.5625   97.3002   13.4409
  2.500  137.5283   25.9619  134.4814   25.6094  125.9252   23.1810  106.0870   18.7746  111.4736   20.0601  112.2727   19.7217
  2.600  166.1858   42.5244  162.7117   42.2029  151.5470   37.7203  126.7928   30.5161  133.5823   32.7476  134.0678   31.7978
  2.700  209.8748   81.1175  205.7568   81.2775  190.6391   71.2175  158.1574   57.7894  167.0837   62.4110  167.1197   59.3996
  2.800  260.9845  193.1801  253.9912  195.8239  239.0614  167.6112  194.7022  136.8395  204.9450  148.8302  208.3384  138.2577
  2.900  109.5111  419.6963   86.6720  413.5318  120.7007  384.6128   87.8692  295.3546   82.8232  312.7662  115.9913  315.9748
  3.000 -128.3133  261.8528 -134.4597  238.3619 -131.9139  246.4379  -76.2791  180.1080  -77.4292  189.2726  -84.6562  211.2030
  3.100 -112.3576  152.1498  -97.1603  128.2310  -98.7029  114.5660  -46.4854  103.8155  -61.0154  117.6487  -66.0398  118.1493
  3.200  -87.6667   88.2651  -75.6125   90.9778  -59.4738   83.5465  -35.2118   91.9248  -45.4759   81.4809  -48.8060   81.0275
  3.300  -40.5978   69.7279  -40.7283   68.1635  -36.4544   69.8860  -32.7062   72.1364  -24.3274   66.7726  -16.6705   63.5368
  3.400  -11.3038  104.9720   -8.6475   91.8513   -6.4066   83.8911  -10.7804   71.2805    0.5513   81.5152   14.4964   89.0293
  3.500  -77.9498  126.5718  -57.8792  125.7706  -44.0228  120.9282  -27.0817   81.0930  -34.9554  103.6499  -35.2469  132.9827
  3.600  -87.5512   64.9973  -78.9816   71.8554  -67.8669   73.5218  -25.6481   66.5359  -44.4819   71.0152  -64.1412   80.5961
  3.700  -61.9879   43.3721  -57.4653   51.7159  -47.2302   55.9598  -18.7476   72.1158  -31.7929   65.0523  -48.3437   64.3098
  3.800  -42.1582   43.5143  -44.9424   50.3586  -40.3477   63.6638  -35.9696   76.5418  -38.7424   70.0065  -49.1013   56.2901
  3.900  -39.7211   65.7918  -46.2286   66.5882  -52.2161   68.6914  -49.6671   70.9293  -49.8130   66.1807  -44.0596   58.8024
  4.000  -70.2899   50.8542  -70.2180   46.5305  -70.4581   46.3092  -63.5423   44.9485  -61.8325   42.9443  -59.4868   43.6743
  4.100  -59.9628   28.2712  -57.8991   26.6362  -57.5087   26.2415  -49.3305   25.5060  -47.7980   26.5941  -46.6627   27.3291
  4.200  -49.9828   22.2945  -48.6925   22.2939  -47.6316   22.1666  -36.6428   21.0652  -37.4098   23.8348  -37.2268   27.1906
  4.300  -41.5486   19.8935  -40.9465   18.2533  -39.9959   17.9556  -27.1330   21.8716  -29.9741   24.3808  -32.9346   26.4306
  4.400  -37.4298   23.6616  -34.0088   20.2612  -33.3126   18.6497  -20.9006   29.5312  -26.2428   31.0971  -28.6441   31.5281
  4.500  -42.9552   19.4569  -36.8274   23.2193  -31.2821   21.7269  -32.7693   37.2627  -37.2593   31.1973  -41.4771   31.4656
  4.600  -37.5932   10.8030  -37.7445   14.2627  -35.2755   18.3302  -39.7328   22.0459  -38.9731   19.6932  -40.7949   16.6494
  4.700  -30.2181    7.9188  -30.6962    9.1569  -30.8390   11.4505  -32.7684   12.8950  -32.4843   11.8717  -32.4677   10.1293
  4.800  -23.4214    7.6300  -23.4780    8.1703  -23.5853    9.0734  -24.7191    9.6085  -24.7375    9.0903  -24.7479    8.3569
  4.900  -16.7262    9.9327  -16.3029   10.2184  -15.9614   10.6430  -16.9725   10.4824  -17.2136    9.9982  -17.5933    9.4641
  5.000  -12.9446   17.2625  -11.1963   18.4001   -9.8123   18.6923  -11.7941   17.0273  -11.6275   16.2137  -12.3384   14.7064
  5.100  -18.4476   20.1885  -19.6881   24.0260  -18.6177   28.3402  -17.7922   20.8224  -16.7422   21.2760  -14.1327   19.9029
  5.200  -14.6391   18.3573  -18.9916   19.9624  -22.7871   23.0292  -14.8049   16.4200  -14.8000   18.2386  -12.8553   20.9519
  5.300  -13.7704   26.8825  -18.9964   21.8590  -24.8372   19.0557  -10.5823   21.8507  -12.0255   22.7251  -13.5203   24.2183
  5.400  -20.2836   30.7344  -17.9242   23.5926  -19.2739   16.5770  -11.9530   28.5096  -14.1697   31.3871  -15.3211   34.2371
  5.500  -29.7761   31.9908  -23.1326   31.2578  -15.0542   24.3944  -20.8168   36.1946  -27.0801   32.2168  -31.6558   31.0348
  5.600  -40.8255   22.8839  -37.3861   26.8285  -31.2625   33.2550  -38.1616   29.7700  -35.4287   26.6868  -36.3190   23.8972
  5.700  -38.2621   10.9421  -38.7645   13.1963  -39.5270   16.6020  -38.7596   15.3344  -38.0289   14.9846  -37.5037   13.6050
  5.800  -33.1439    5.9180  -33.6518    6.6799  -34.4384    7.8127  -33.9199    7.7184  -33.6226    7.4822  -33.1812    6.9598
  5.900  -29.0994    3.8108  -29.3458    4.1191  -29.7485    4.5761  -29.2288    4.5930  -29.1021    4.4523  -28.8675    4.2232
