# GW Macroscopic dielectric function without local field effects 
# Scissor operator energy =  0.8000 [eV]
# Tolerance = -0.0010 0.0000
# npweps  = 51
# npwwfn  = 137
# nbands  = 8
# loband  = 2
# nkibz   = 8
# nkbz    = 8
# Lorentzian broadening =  0.1000 [eV]
# List of q-points for the optical limit:
# q =  0.938821, 0.000000, 0.000000, [Reduced coords] 
# q =  0.000000, 0.938821, 0.000000, [Reduced coords] 
# q =  0.000000, 0.000000, 0.938821, [Reduced coords] 
# q =  0.000000, 0.813043, 0.813043, [Reduced coords] 
# q =  0.813043, 0.000000, 0.813043, [Reduced coords] 
# q =  0.813043, 0.813043, 0.000000, [Reduced coords] 
# omega [eV]    RE(eps(q=1)) IM(eps(q=1) RE(eps(q=2) ) ... DOS   IDOS
  0.000   38.0514   -0.0000   37.2302    0.0000   35.8296    0.0000   31.7894    0.0000   32.8678    0.0000   33.4340   -0.0000    0.0000    0.0000
  0.100   38.0759    0.0491   37.2540    0.0478   35.8523    0.0456   31.8089    0.0390   32.8881    0.0407   33.4547    0.0415    0.0000    0.0000
  0.200   38.1494    0.0985   37.3257    0.0961   35.9206    0.0915   31.8673    0.0783   32.9491    0.0818   33.5170    0.0834    0.0000    0.0000
  0.300   38.2726    0.1488   37.4459    0.1451   36.0350    0.1383   31.9652    0.1182   33.0514    0.1235   33.6213    0.1260    0.0000    0.0000
  0.400   38.4467    0.2005   37.6156    0.1955   36.1967    0.1862   32.1034    0.1592   33.1958    0.1663   33.7686    0.1697    0.0000    0.0000
  0.500   38.6730    0.2538   37.8363    0.2475   36.4069    0.2357   32.2831    0.2015   33.3836    0.2105   33.9601    0.2148    0.0000    0.0000
  0.600   38.9536    0.3095   38.1099    0.3018   36.6675    0.2874   32.5058    0.2455   33.6163    0.2566   34.1975    0.2618    0.0000    0.0000
  0.700   39.2910    0.3680   38.4389    0.3589   36.9808    0.3417   32.7734    0.2918   33.8960    0.3050   34.4829    0.3111    0.0000    0.0000
  0.800   39.6884    0.4301   38.8265    0.4194   37.3498    0.3992   33.0884    0.3407   34.2254    0.3562   34.8189    0.3634    0.0000    0.0000
  0.900   40.1497    0.4963   39.2763    0.4840   37.7780    0.4607   33.4538    0.3929   34.6074    0.4109   35.2086    0.4192    0.0000    0.0000
  1.000   40.6794    0.5677   39.7928    0.5536   38.2696    0.5269   33.8730    0.4490   35.0457    0.4697   35.6558    0.4792    0.0000    0.0000
  1.100   41.2831    0.6452   40.3814    0.6291   38.8298    0.5986   34.3503    0.5098   35.5450    0.5333   36.1652    0.5442    0.0000    0.0000
  1.200   41.9673    0.7300   41.0487    0.7118   39.4646    0.6772   34.8907    0.5761   36.1105    0.6029   36.7421    0.6152    0.0000    0.0000
  1.300   42.7401    0.8236   41.8022    0.8031   40.1814    0.7637   35.5003    0.6491   36.7485    0.6795   37.3932    0.6934    0.0000    0.0000
  1.400   43.6109    0.9276   42.6513    0.9045   40.9888    0.8600   36.1863    0.7301   37.4667    0.7646   38.1261    0.7803    0.0000    0.0000
  1.500   44.5911    1.0444   43.6071    1.0184   41.8974    0.9680   36.9573    0.8207   38.2743    0.8598   38.9502    0.8776    0.0000    0.0000
  1.600   45.6944    1.1765   44.6831    1.1473   42.9199    1.0901   37.8237    0.9229   39.1822    0.9674   39.8769    0.9875    0.0000    0.0000
  1.700   46.9377    1.3275   45.8955    1.2946   44.0717    1.2296   38.7983    1.0394   40.2040    1.0901   40.9200    1.1128    0.0000    0.0000
  1.800   48.3416    1.5018   47.2646    1.4647   45.3718    1.3905   39.8966    1.1734   41.3561    1.2313   42.0961    1.2572    0.0000    0.0000
  1.900   49.9315    1.7051   48.8153    1.6632   46.8435    1.5781   41.1377    1.3291   42.6587    1.3957   43.4263    1.4253    0.0000    0.0000
  2.000   51.7393    1.9452   50.5787    1.8976   48.5164    1.7996   42.5454    1.5123   44.1375    1.5894   44.9366    1.6235    0.0000    0.0000
  2.100   53.8058    2.2325   52.5946    2.1782   50.4278    2.0644   44.1503    1.7307   45.8247    1.8205   46.6601    1.8601    0.0000    0.0000
  2.200   56.1831    2.5814   54.9143    2.5191   52.6257    2.3860   45.9911    1.9948   47.7617    2.1005   48.6395    2.1470    0.0000    0.0000
  2.300   58.9401    3.0124   57.6050    2.9407   55.1735    2.7831   48.1189    2.3196   50.0032    2.4456   50.9309    2.5009    0.0000    0.0000
  2.400   62.1688    3.5557   60.7572    3.4724   58.1559    3.2836   50.6016    2.7271   52.6220    2.8794   53.6095    2.9464    0.0000    0.0000
  2.500   65.9960    4.2570   64.4952    4.1595   61.6895    3.9294   53.5325    3.2503   55.7182    3.4379   56.7784    3.5208    0.0000    0.0000
  2.600   70.6008    5.1884   68.9953    5.0732   65.9392    4.7871   57.0425    3.9411   59.4332    4.1776   60.5839    4.2834    0.0000    0.0000
  2.700   76.2457    6.4703   74.5161    6.3329   71.1467    5.9673   61.3229    4.8856   63.9736    5.1930   65.2408    5.3334    0.0000    0.0000
  2.800   83.3317    8.3160   81.4534    8.1504   77.6811    7.6665   66.6636    6.2355   69.6547    6.6509   71.0776    6.8476    0.0000    0.0000
  2.900   92.5018   11.1357   90.4433   10.9350   86.1344   10.2614   73.5270    8.2795   76.9813    8.8720   78.6233    9.1692    0.0003    0.0000
  3.000  104.8454   15.8057  102.5661   15.5636   97.5103   14.5545   82.6910   11.6290   86.8077   12.5389   88.7780   13.0385    0.0232    0.0001
  3.100  122.2955   24.4805  119.7408   24.2046  113.5940   22.5060   95.5271   17.7696  100.6508   19.3227  103.1437   20.3018    0.6884    0.0026
  3.200  148.0572   43.5542  145.1116   43.3298  137.4162   39.8745  114.3007   31.0544  121.0604   34.1491  124.3395   36.5315    8.3263    0.0332
  3.300  180.9181   95.6898  176.7897   95.5685  169.0891   87.1965  138.2898   66.4051  147.7623   74.4861  150.5040   81.7778   42.4424    0.1892
  3.400  145.7386  211.7787  143.8454  211.5306  140.1324  203.6395  126.1981  144.4084  123.5006  171.6254  108.8881  180.0527   92.9901    0.5309
  3.500   -7.3211  210.1192  -20.7662  203.2966  -16.8245  194.7440   13.8839  174.7707   -9.5262  161.4608  -12.4434  145.2307   87.4439    0.8523
  3.600  -22.3466  103.7367  -25.8287   95.5219  -27.8810   92.3137  -18.6878   87.2062  -10.8453   77.0155   -2.4487   70.8130   36.8484    0.9877
  3.700   26.9241   79.3372   21.5700   70.5486   15.7379   63.4683   17.3682   58.8848   28.1056   59.4461   36.6613   57.9209   24.3854    1.0773
  3.800   59.3652  123.4114   57.5093  104.0828   54.0595   85.8472   45.1533   81.6651   54.4817   90.2398   66.1089   90.1761   59.9493    1.2976
  3.900  -17.2976  165.3267    4.6447  153.6587   20.4653  143.8470    5.8103  108.0998    9.2900  124.1941   23.1615  143.2242   79.3182    1.5891
  4.000  -37.5608   93.8910  -24.9141   99.3995  -17.5119   96.0510    2.0620   71.7332   -7.0629   81.7394  -13.6070   98.3804   57.3419    1.7998
  4.100    1.2524   83.5039    6.1267   93.7975   17.2898   92.4385   26.2703   81.9543   20.2370   86.7679    3.1769   93.0724   57.4819    2.0111
  4.200   10.8396  135.5864   -0.8000  146.2074    1.3716  150.7661   12.7572  127.5400    0.2948  130.4162   -5.2683  122.0320   72.2671    2.2766
  4.300  -75.2919  129.3114  -81.2973  117.0561  -81.5703  116.3308  -60.0385  107.6826  -61.3973   98.9894  -59.7248   95.5756   61.9412    2.5043
  4.400  -68.4968   77.0239  -65.0086   67.3796  -64.4128   62.7753  -49.9763   60.6635  -46.4136   60.9443  -43.1578   59.4680   66.3323    2.7480
  4.500  -64.1981   64.2399  -55.5876   63.8844  -47.8474   62.1976  -41.6441   51.6373  -38.8598   55.9563  -32.5242   60.9399   91.4334    3.0841
  4.600  -53.5631   47.8079  -55.8645   47.0569  -56.1833   48.8807  -32.3831   38.3016  -34.1276   43.9763  -35.0361   50.9483   80.2018    3.3788
  4.700  -40.2359   48.9764  -38.7862   37.1637  -41.1319   31.6673  -15.3777   35.1938  -18.8306   44.4295  -19.7024   51.0184   51.0446    3.5664
  4.800  -54.3751   50.5522  -31.5379   50.9309  -22.0294   35.3535   -4.9187   54.5156  -22.7567   54.5013  -31.7203   66.8346   46.1279    3.7359
  4.900  -49.4673   29.5704  -47.4442   41.5069  -27.9103   53.7490  -29.6592   66.4592  -32.3766   57.8875  -47.9408   48.9379   43.4035    3.8954
  5.000  -35.2641   21.8039  -36.8216   26.0655  -37.5076   35.7056  -41.0179   40.1339  -40.6214   37.0148  -40.6180   29.9170   23.8610    3.9831
  5.100  -18.7782   23.6399  -19.2106   25.5722  -20.2109   29.3164  -23.5198   28.7850  -23.6888   27.4568  -23.3066   24.9677   18.3908    4.0507
  5.200   -4.7567   41.8697   -3.4649   43.9311   -3.5481   47.1077   -6.4678   40.4049   -7.0115   39.1805   -8.1617   37.4535   57.9515    4.2636
  5.300  -28.8616   69.4610  -30.7821   77.9819  -31.6705   82.4379  -23.7929   67.9147  -24.1007   65.7240  -23.2011   58.9351   96.5938    4.6186
  5.400  -47.8302   45.0333  -57.9190   45.5845  -64.7919   47.9011  -45.3547   43.8538  -41.0811   43.5608  -33.2610   43.5139   77.3374    4.9028
  5.500  -39.4170   43.0379  -46.0659   32.9990  -52.6459   28.0822  -32.1686   36.8210  -30.3450   44.1258  -28.1076   52.6204   74.7686    5.1776
  5.600  -54.4869   41.8313  -47.7622   33.3621  -47.0944   24.2116  -41.6083   47.0590  -50.4377   49.1755  -55.0372   53.3392   80.5546    5.4736
  5.700  -52.7464   24.8415  -45.6890   23.9790  -40.1393   18.6366  -47.6507   30.4590  -52.4495   27.3110  -58.1589   27.0327   53.5039    5.6621
  5.800  -49.1171   23.0828  -44.5498   25.7102  -34.1404   25.2003  -45.3939   28.9886  -46.0594   23.3062  -48.3588   19.5770   42.9508    5.8462
  5.900  -50.7801   14.7838  -49.5578   18.8093  -47.4083   25.5920  -50.7600   19.1043  -48.3956   18.5915  -48.2059   16.2574   33.0198    5.8917
