# Macroscopic dielectric function obtained with the BS equation.
#  RPA L0 with KS energies and KS wavefunctions     LOCAL FIELD EFFECTS INCLUDED
# RESONANT-ONLY calculation
# Coulomb term constructed with full W(G1,G2)
# Scissor operator energy =  0.8000 [eV]
# Tolerance = -0.0010 0.0000
# npweps  = 51
# npwwfn  = 137
# nbands  = 8
# loband  = 2
# nkibz   = 8
# nkbz    = 8
# Lorentzian broadening =  0.1000 [eV]
# List of q-points for the optical limit:
# q =  0.938821, 0.000000, 0.000000, [Reduced coords] 
# q =  0.000000, 0.938821, 0.000000, [Reduced coords] 
# q =  0.000000, 0.000000, 0.938821, [Reduced coords] 
# q =  0.000000, 0.813043, 0.813043, [Reduced coords] 
# q =  0.813043, 0.000000, 0.813043, [Reduced coords] 
# q =  0.813043, 0.813043, 0.000000, [Reduced coords] 
# omega [eV]    RE(eps(q=1)) IM(eps(q=1) RE(eps(q=2) ) ... 
  0.000   19.5562    0.0000   19.2592    0.0000   18.7056    0.0000   16.9629    0.0000   17.4211    0.0000   17.6754    0.0000
  0.100   19.5693    0.0264   19.2721    0.0259   18.7180    0.0248   16.9736    0.0214   17.4322    0.0223   17.6867    0.0227
  0.200   19.6089    0.0530   19.3108    0.0520   18.7551    0.0498   17.0057    0.0430   17.4657    0.0448   17.7208    0.0457
  0.300   19.6751    0.0801   19.3759    0.0786   18.8174    0.0753   17.0595    0.0650   17.5217    0.0677   17.7779    0.0690
  0.400   19.7688    0.1079   19.4677    0.1059   18.9054    0.1014   17.1354    0.0875   17.6008    0.0912   17.8586    0.0930
  0.500   19.8906    0.1368   19.5873    0.1343   19.0199    0.1286   17.2343    0.1109   17.7038    0.1156   17.9637    0.1179
  0.600   20.0420    0.1671   19.7358    0.1639   19.1621    0.1570   17.3569    0.1353   17.8316    0.1410   18.0940    0.1438
  0.700   20.2242    0.1990   19.9146    0.1952   19.3333    0.1869   17.5045    0.1610   17.9854    0.1679   18.2508    0.1712
  0.800   20.4392    0.2330   20.1256    0.2286   19.5353    0.2188   17.6785    0.1884   18.1668    0.1964   18.4358    0.2003
  0.900   20.6893    0.2695   20.3710    0.2644   19.7701    0.2530   17.8806    0.2176   18.3775    0.2270   18.6507    0.2315
  1.000   20.9772    0.3091   20.6535    0.3033   20.0403    0.2901   18.1130    0.2493   18.6199    0.2600   18.8979    0.2652
  1.100   21.3062    0.3523   20.9763    0.3457   20.3491    0.3306   18.3782    0.2837   18.8966    0.2961   19.1800    0.3020
  1.200   21.6803    0.4000   21.3434    0.3925   20.7001    0.3751   18.6793    0.3216   19.2108    0.3357   19.5006    0.3424
  1.300   22.1043    0.4530   21.7595    0.4445   21.0977    0.4247   19.0199    0.3635   19.5665    0.3797   19.8633    0.3872
  1.400   22.5841    0.5125   22.2303    0.5030   21.5474    0.4803   19.4046    0.4104   19.9684    0.4288   20.2732    0.4374
  1.500   23.1267    0.5799   22.7628    0.5692   22.0558    0.5432   19.8388    0.4634   20.4221    0.4844   20.7360    0.4941
  1.600   23.7407    0.6571   23.3654    0.6449   22.6308    0.6151   20.3289    0.5237   20.9345    0.5478   21.2587    0.5587
  1.700   24.4367    0.7463   24.0486    0.7326   23.2823    0.6982   20.8830    0.5931   21.5143    0.6208   21.8501    0.6332
  1.800   25.2281    0.8506   24.8255    0.8351   24.0225    0.7953   21.5112    0.6739   22.1720    0.7059   22.5209    0.7200
  1.900   26.1315    0.9742   25.7124    0.9566   24.8669    0.9102   22.2260    0.7692   22.9208    0.8063   23.2847    0.8223
  2.000   27.1680    1.1226   26.7303    1.1026   25.8351    1.0480   23.0432    0.8829   23.7778    0.9264   24.1587    0.9447
  2.100   28.3654    1.3035   27.9064    1.2807   26.9526    1.2159   23.9835    1.0209   24.7647    1.0722   25.1651    1.0932
  2.200   29.7600    1.5282   29.2767    1.5021   28.2530    1.4242   25.0738    1.1912   25.9103    1.2526   26.3331    1.2768
  2.300   31.4008    1.8131   30.8897    1.7830   29.7816    1.6880   26.3505    1.4059   27.2533    1.4802   27.7019    1.5082
  2.400   33.3560    2.1833   32.8128    2.1487   31.6011    2.0304   27.8635    1.6831   28.8471    1.7747   29.3257    1.8073
  2.500   35.7224    2.6792   35.1424    2.6394   33.8010    2.4885   29.6840    2.0520   30.7676    2.1673   31.2812    2.2054
  2.600   38.6437    3.3688   38.0211    3.3234   36.5133    3.1249   31.9163    2.5614   33.1268    2.7108   33.6814    2.7551
  2.700   42.3415    4.3749   41.6702    4.3244   39.9420    4.0519   34.7213    3.2994   36.0971    3.5000   36.6996    3.5508
  2.800   47.1758    5.9389   46.4501    5.8870   44.4179    5.4900   38.3588    4.4385   39.9581    4.7216   40.6158    4.7768
  2.900   53.7647    8.5915   52.9820    8.5525   50.5087    7.9221   43.2730    6.3574   45.1885    6.7859   45.9081    6.8343
  3.000   63.2095   13.6911   62.3740   13.7168   59.2293   12.5733   50.2524   10.0246   52.6395   10.7441   53.4274   10.7379
  3.100   77.1882   25.4773   76.2904   25.7769   72.1918   23.2240   60.4873   18.4644   63.6026   19.8841   64.5247   19.6083
  3.200   92.0164   59.1293   90.4780   60.5415   87.1548   53.7067   71.2104   42.4605   75.1522   46.0020   77.4073   44.8433
  3.300   51.3021  113.6277   44.7189  113.8866   48.4088  111.5990   42.8307   79.5109   42.8917   87.9556   46.2783   92.9191
  3.400   -3.9586   86.4364   -6.6031   80.7920   -5.5755   75.7957    7.4534   64.7419    1.7630   63.6718    2.3414   62.6766
  3.500   -0.4746   57.1003   -1.7574   53.0299   -1.1767   51.6904    3.4796   43.8101    7.0704   42.8977   11.3252   44.5048
  3.600    5.2331   51.5340    4.5740   46.4659    3.9629   44.4382    9.4774   34.2965   13.4283   39.1332   16.6782   45.9288
  3.700   14.6488   61.5740   17.3730   52.1642   15.7191   45.7088   23.2916   37.3089   23.7401   48.6786   21.4996   58.8261
  3.800  -14.7880   70.3451   -3.3658   71.5039    6.5297   63.9972   16.1996   59.6741    1.4186   64.3461   -8.9086   65.5096
  3.900  -21.1388   44.2631  -18.3432   48.7871  -12.7446   51.0612   -4.9423   50.9015  -10.5065   44.0567  -15.3494   41.0337
  4.000   -9.2046   36.4774   -8.5944   40.6285   -3.5155   43.4425   -1.9723   43.0752   -1.8143   38.4907   -3.5627   34.5177
  4.100   -1.8399   41.3145   -4.7794   44.3621   -7.2060   49.3121   -2.9832   42.3250   -1.4808   42.1331   -0.3703   39.9224
  4.200   -7.5267   53.9409  -11.3415   52.1614  -12.5264   50.3337   -6.4399   46.9181   -5.5224   46.1778   -4.6455   45.4430
  4.300  -23.2054   53.8648  -24.1119   51.4910  -22.6534   51.6202  -16.2752   45.6624  -15.6774   46.9641  -13.8701   46.2780
  4.400  -33.9559   38.8437  -34.7505   36.8250  -35.5837   37.4029  -23.7810   33.4054  -23.2905   34.5884  -21.8620   36.1492
  4.500  -27.3891   27.0542  -28.7944   23.5697  -30.5747   22.3113  -16.8523   23.6839  -15.8617   26.5686  -15.4221   28.7902
  4.600  -23.2532   30.5622  -19.8935   22.6885  -20.9805   17.9899   -7.9815   26.7783  -12.1934   33.2534  -12.9070   36.2708
  4.700  -32.3681   27.0554  -22.9162   29.2937  -15.5051   22.8640  -13.6569   38.3076  -20.9231   34.2052  -26.2979   37.9364
  4.800  -30.6452   16.4899  -29.2775   20.7846  -23.7386   25.9785  -27.8655   32.3095  -28.4435   28.7128  -32.3038   24.3532
  4.900  -26.5601   12.3011  -25.9298   14.1116  -25.2239   16.9366  -28.8922   20.0294  -28.9060   18.1984  -28.3963   15.5981
  5.000  -22.1698    9.1774  -22.7124   11.2073  -21.8528   13.3130  -24.7734   13.6396  -24.1402   12.5081  -24.1542   11.1558
  5.100  -18.5957    9.3768  -19.3119    9.7001  -19.7666   11.5035  -21.0394   11.0835  -20.4901   10.3577  -19.7962    9.1246
  5.200  -16.3343   10.0743  -16.7351   10.6438  -17.2121   11.1364  -18.0036    9.8885  -17.3820   10.2060  -16.1919    9.5637
  5.300  -17.4188   11.1436  -18.1864   10.7921  -18.3947   11.5075  -17.3925    9.9015  -17.4686   10.1165  -16.3031   10.2873
  5.400  -17.4161    8.9656  -17.0288    8.1879  -17.6860    8.4778  -15.8596    7.5940  -15.7300    8.0488  -14.9536    9.3992
  5.500  -16.9001    8.6219  -16.2915    8.1377  -16.4481    7.5976  -13.3956    8.2782  -14.6068    9.0814  -15.6191   10.3116
  5.600  -16.9592    6.2006  -16.1181    6.4337  -15.4870    6.1140  -14.7021    8.3950  -15.5465    7.6352  -16.7061    7.6948
  5.700  -14.9312    4.7435  -14.3551    5.0835  -13.7749    5.2681  -13.7074    6.4807  -14.2228    6.0257  -14.8134    5.5658
  5.800  -13.4902    4.4925  -13.0821    5.0358  -12.3457    5.5079  -12.7391    6.3656  -12.9204    5.5036  -13.4338    5.1822
  5.900  -12.3406    4.5002  -12.2919    4.9439  -12.1946    5.5231  -12.3841    6.0320  -12.0613    5.4391  -12.3365    4.5353
