# Macroscopic dielectric function obtained with the BS equation.
#  RPA L0 with KS energies and KS wavefunctions     LOCAL FIELD EFFECTS INCLUDED
# RESONANT-ONLY calculation
# Coulomb term constructed with full W(G1,G2)
# Scissor operator energy =  0.8000 [eV]
# nstates included in the diagonalization = 96
# npweps  = 113
# npwwfn  = 259
# nbands  = 8
# loband  = 2
# nkibz   = 3
# nkbz    = 8
# Lorentzian broadening =  0.0000 [eV]
# List of q-points for the optical limit:
# q =  0.938821, 0.000000, 0.000000, [Reduced coords] 
# q =  0.000000, 0.938821, 0.000000, [Reduced coords] 
# q =  0.000000, 0.000000, 0.938821, [Reduced coords] 
# q =  0.000000, 0.813043, 0.813043, [Reduced coords] 
# q =  0.813043, 0.000000, 0.813043, [Reduced coords] 
# q =  0.813043, 0.813043, 0.000000, [Reduced coords] 
# omega [eV]    RE(eps(q=1)) IM(eps(q=1) RE(eps(q=2) ) ... DOS   IDOS
  0.000   54.7899    0.1283   54.7792    0.1550   54.7853    0.1531   54.7676    0.1168   54.8259    0.1577   54.8357    0.1608    0.0000    0.0000
  0.010   54.7905    0.1308   54.7797    0.1575   54.7859    0.1557   54.7681    0.1192   54.8265    0.1603   54.8362    0.1634    0.0000    0.0000
  0.020   54.7921    0.1332   54.7813    0.1600   54.7875    0.1582   54.7697    0.1217   54.8281    0.1629   54.8378    0.1660    0.0000    0.0000
  0.030   54.7947    0.1356   54.7839    0.1625   54.7902    0.1607   54.7724    0.1242   54.8307    0.1656   54.8405    0.1687    0.0000    0.0000
  0.040   54.7985    0.1381   54.7877    0.1650   54.7939    0.1632   54.7761    0.1267   54.8345    0.1682   54.8443    0.1713    0.0000    0.0000
  0.050   54.8033    0.1406   54.7925    0.1676   54.7987    0.1658   54.7810    0.1292   54.8393    0.1709   54.8491    0.1740    0.0000    0.0000
  0.060   54.8092    0.1430   54.7983    0.1701   54.8046    0.1683   54.7868    0.1317   54.8452    0.1735   54.8550    0.1767    0.0000    0.0000
  0.070   54.8161    0.1455   54.8053    0.1727   54.8116    0.1709   54.7938    0.1342   54.8521    0.1762   54.8619    0.1793    0.0000    0.0000
  0.080   54.8242    0.1480   54.8133    0.1753   54.8196    0.1735   54.8018    0.1367   54.8602    0.1789   54.8700    0.1820    0.0000    0.0000
  0.090   54.8333    0.1505   54.8224    0.1779   54.8287    0.1761   54.8109    0.1392   54.8693    0.1816   54.8791    0.1847    0.0000    0.0000
  0.100   54.8434    0.1530   54.8325    0.1805   54.8389    0.1787   54.8211    0.1418   54.8794    0.1843   54.8893    0.1875    0.0000    0.0000
  0.110   54.8547    0.1555   54.8437    0.1831   54.8501    0.1813   54.8323    0.1443   54.8907    0.1871   54.9005    0.1902    0.0000    0.0000
  0.120   54.8670    0.1581   54.8560    0.1857   54.8625    0.1839   54.8446    0.1469   54.9030    0.1898   54.9129    0.1929    0.0000    0.0000
  0.130   54.8804    0.1606   54.8694    0.1883   54.8759    0.1865   54.8580    0.1495   54.9164    0.1926   54.9263    0.1957    0.0000    0.0000
  0.140   54.8949    0.1631   54.8839    0.1910   54.8903    0.1892   54.8725    0.1520   54.9309    0.1953   54.9408    0.1984    0.0000    0.0000
  0.150   54.9104    0.1657   54.8994    0.1936   54.9059    0.1918   54.8880    0.1546   54.9465    0.1981   54.9564    0.2012    0.0000    0.0000
  0.160   54.9271    0.1683   54.9160    0.1963   54.9225    0.1945   54.9047    0.1572   54.9632    0.2009   54.9730    0.2040    0.0000    0.0000
  0.170   54.9448    0.1709   54.9337    0.1990   54.9403    0.1972   54.9224    0.1599   54.9809    0.2037   54.9908    0.2068    0.0000    0.0000
  0.180   54.9636    0.1735   54.9525    0.2017   54.9591    0.1999   54.9412    0.1625   54.9997    0.2065   55.0096    0.2096    0.0000    0.0000
  0.190   54.9835    0.1761   54.9724    0.2044   54.9790    0.2026   54.9611    0.1651   55.0197    0.2094   55.0296    0.2125    0.0000    0.0000
  0.200   55.0045    0.1787   54.9934    0.2071   55.0000    0.2053   54.9821    0.1678   55.0407    0.2122   55.0506    0.2153    0.0000    0.0000
  0.210   55.0266    0.1813   55.0154    0.2098   55.0221    0.2081   55.0042    0.1704   55.0628    0.2151   55.0727    0.2182    0.0000    0.0000
  0.220   55.0498    0.1840   55.0386    0.2126   55.0453    0.2108   55.0273    0.1731   55.0860    0.2180   55.0959    0.2210    0.0000    0.0000
  0.230   55.0741    0.1867   55.0629    0.2154   55.0695    0.2136   55.0516    0.1758   55.1103    0.2209   55.1203    0.2239    0.0000    0.0000
  0.240   55.0995    0.1893   55.0882    0.2182   55.0949    0.2164   55.0770    0.1785   55.1358    0.2238   55.1457    0.2269    0.0000    0.0000
  0.250   55.1260    0.1920   55.1147    0.2210   55.1214    0.2192   55.1035    0.1812   55.1623    0.2267   55.1722    0.2298    0.0000    0.0000
  0.260   55.1536    0.1947   55.1423    0.2238   55.1490    0.2220   55.1311    0.1840   55.1900    0.2297   55.1999    0.2327    0.0000    0.0000
  0.270   55.1823    0.1975   55.1710    0.2266   55.1777    0.2249   55.1598    0.1867   55.2187    0.2326   55.2287    0.2357    0.0000    0.0000
  0.280   55.2121    0.2002   55.2008    0.2295   55.2076    0.2277   55.1896    0.1895   55.2486    0.2356   55.2586    0.2387    0.0000    0.0000
  0.290   55.2431    0.2030   55.2317    0.2323   55.2385    0.2306   55.2206    0.1923   55.2796    0.2386   55.2896    0.2417    0.0000    0.0000
  0.300   55.2752    0.2057   55.2637    0.2352   55.2706    0.2335   55.2526    0.1950   55.3117    0.2417   55.3217    0.2447    0.0000    0.0000
  0.310   55.3084    0.2085   55.2969    0.2381   55.3038    0.2364   55.2858    0.1979   55.3450    0.2447   55.3550    0.2477    0.0000    0.0000
  0.320   55.3427    0.2113   55.3312    0.2411   55.3382    0.2393   55.3202    0.2007   55.3794    0.2478   55.3894    0.2508    0.0000    0.0000
  0.330   55.3782    0.2142   55.3667    0.2440   55.3736    0.2423   55.3556    0.2035   55.4149    0.2508   55.4249    0.2539    0.0000    0.0000
  0.340   55.4148    0.2170   55.4033    0.2470   55.4102    0.2452   55.3922    0.2064   55.4516    0.2539   55.4616    0.2570    0.0000    0.0000
  0.350   55.4526    0.2199   55.4410    0.2500   55.4480    0.2482   55.4300    0.2093   55.4894    0.2571   55.4994    0.2601    0.0000    0.0000
  0.360   55.4915    0.2227   55.4799    0.2530   55.4869    0.2512   55.4689    0.2122   55.5284    0.2602   55.5384    0.2632    0.0000    0.0000
  0.370   55.5316    0.2256   55.5199    0.2560   55.5270    0.2543   55.5090    0.2151   55.5685    0.2634   55.5786    0.2664    0.0000    0.0000
  0.380   55.5729    0.2286   55.5611    0.2591   55.5682    0.2573   55.5502    0.2181   55.6098    0.2666   55.6199    0.2696    0.0000    0.0000
  0.390   55.6153    0.2315   55.6035    0.2621   55.6106    0.2604   55.5926    0.2210   55.6523    0.2698   55.6624    0.2728    0.0000    0.0000
  0.400   55.6588    0.2345   55.6471    0.2652   55.6542    0.2635   55.6361    0.2240   55.6960    0.2730   55.7060    0.2760    0.0000    0.0000
  0.410   55.7036    0.2374   55.6918    0.2683   55.6989    0.2666   55.6809    0.2270   55.7408    0.2763   55.7509    0.2793    0.0000    0.0000
  0.420   55.7495    0.2404   55.7377    0.2715   55.7449    0.2698   55.7268    0.2300   55.7868    0.2796   55.7969    0.2826    0.0000    0.0000
  0.430   55.7967    0.2435   55.7848    0.2746   55.7920    0.2729   55.7739    0.2331   55.8340    0.2829   55.8441    0.2859    0.0000    0.0000
  0.440   55.8450    0.2465   55.8331    0.2778   55.8403    0.2761   55.8222    0.2361   55.8824    0.2862   55.8925    0.2892    0.0000    0.0000
  0.450   55.8945    0.2496   55.8826    0.2810   55.8898    0.2793   55.8717    0.2392   55.9320    0.2896   55.9422    0.2926    0.0000    0.0000
  0.460   55.9453    0.2527   55.9333    0.2843   55.9406    0.2826   55.9224    0.2423   55.9828    0.2929   55.9930    0.2959    0.0000    0.0000
  0.470   55.9972    0.2558   55.9852    0.2875   55.9925    0.2858   55.9744    0.2455   56.0349    0.2963   56.0450    0.2994    0.0000    0.0000
  0.480   56.0504    0.2589   56.0383    0.2908   56.0457    0.2891   56.0275    0.2486   56.0881    0.2998   56.0983    0.3028    0.0000    0.0000
  0.490   56.1048    0.2621   56.0927    0.2941   56.1001    0.2924   56.0819    0.2518   56.1426    0.3032   56.1528    0.3063    0.0000    0.0000
  0.500   56.1605    0.2653   56.1483    0.2975   56.1557    0.2958   56.1375    0.2550   56.1984    0.3067   56.2086    0.3098    0.0000    0.0000
  0.510   56.2173    0.2685   56.2051    0.3009   56.2126    0.2991   56.1944    0.2582   56.2554    0.3103   56.2656    0.3133    0.0000    0.0000
  0.520   56.2755    0.2717   56.2632    0.3043   56.2707    0.3025   56.2525    0.2615   56.3136    0.3138   56.3238    0.3168    0.0000    0.0000
  0.530   56.3349    0.2750   56.3226    0.3077   56.3301    0.3060   56.3119    0.2648   56.3731    0.3174   56.3833    0.3204    0.0000    0.0000
  0.540   56.3956    0.2783   56.3832    0.3111   56.3908    0.3094   56.3726    0.2681   56.4339    0.3210   56.4441    0.3240    0.0000    0.0000
  0.550   56.4575    0.2816   56.4451    0.3146   56.4527    0.3129   56.4345    0.2714   56.4959    0.3247   56.5062    0.3277    0.0000    0.0000
  0.560   56.5207    0.2850   56.5083    0.3181   56.5159    0.3164   56.4977    0.2748   56.5593    0.3283   56.5695    0.3313    0.0000    0.0000
  0.570   56.5852    0.2884   56.5727    0.3217   56.5804    0.3200   56.5622    0.2782   56.6239    0.3320   56.6342    0.3350    0.0000    0.0000
  0.580   56.6511    0.2918   56.6385    0.3253   56.6462    0.3236   56.6280    0.2816   56.6898    0.3358   56.7001    0.3388   -0.0000   -0.0000
  0.590   56.7182    0.2952   56.7056    0.3289   56.7133    0.3272   56.6951    0.2851   56.7571    0.3395   56.7674    0.3425   -0.0000   -0.0000
  0.600   56.7867    0.2987   56.7740    0.3325   56.7818    0.3308   56.7635    0.2886   56.8256    0.3434   56.8360    0.3464   -0.0000   -0.0000
  0.610   56.8565    0.3022   56.8438    0.3362   56.8516    0.3345   56.8333    0.2921   56.8956    0.3472   56.9059    0.3502   -0.0000   -0.0000
  0.620   56.9276    0.3057   56.9148    0.3399   56.9227    0.3382   56.9044    0.2956   56.9668    0.3511   56.9772    0.3541   -0.0000   -0.0000
  0.630   57.0001    0.3093   56.9873    0.3437   56.9951    0.3420   56.9768    0.2992   57.0394    0.3550   57.0498    0.3580   -0.0000   -0.0000
  0.640   57.0739    0.3129   57.0610    0.3474   57.0690    0.3457   57.0507    0.3028   57.1134    0.3589   57.1238    0.3619   -0.0000   -0.0000
  0.650   57.1491    0.3165   57.1362    0.3513   57.1441    0.3496   57.1258    0.3065   57.1887    0.3629   57.1991    0.3659   -0.0000   -0.0000
  0.660   57.2257    0.3202   57.2127    0.3551   57.2207    0.3534   57.2024    0.3102   57.2654    0.3669   57.2758    0.3699   -0.0000   -0.0000
  0.670   57.3037    0.3239   57.2907    0.3590   57.2987    0.3573   57.2804    0.3139   57.3435    0.3710   57.3540    0.3740   -0.0000   -0.0000
  0.680   57.3831    0.3276   57.3700    0.3629   57.3780    0.3612   57.3597    0.3176   57.4231    0.3751   57.4335    0.3781   -0.0000   -0.0000
  0.690   57.4638    0.3314   57.4507    0.3669   57.4588    0.3652   57.4405    0.3214   57.5040    0.3793   57.5145    0.3823   -0.0000   -0.0000
  0.700   57.5461    0.3352   57.5329    0.3709   57.5410    0.3692   57.5227    0.3252   57.5864    0.3834   57.5968    0.3864   -0.0000   -0.0000
  0.710   57.6297    0.3390   57.6165    0.3749   57.6247    0.3732   57.6063    0.3291   57.6702    0.3877   57.6807    0.3907   -0.0000   -0.0000
  0.720   57.7148    0.3429   57.7015    0.3790   57.7097    0.3773   57.6914    0.3330   57.7554    0.3919   57.7659    0.3949   -0.0000   -0.0000
  0.730   57.8014    0.3468   57.7880    0.3832   57.7963    0.3815   57.7779    0.3369   57.8422    0.3963   57.8527    0.3992   -0.0000   -0.0000
  0.740   57.8895    0.3508   57.8760    0.3873   57.8843    0.3856   57.8659    0.3409   57.9304    0.4006   57.9409    0.4036   -0.0000   -0.0000
  0.750   57.9790    0.3548   57.9655    0.3915   57.9738    0.3898   57.9554    0.3449   58.0201    0.4050   58.0306    0.4080   -0.0000   -0.0000
  0.760   58.0700    0.3588   58.0565    0.3958   58.0648    0.3941   58.0465    0.3490   58.1113    0.4095   58.1218    0.4124   -0.0000   -0.0000
  0.770   58.1626    0.3629   58.1490    0.4001   58.1574    0.3984   58.1390    0.3531   58.2040    0.4140   58.2146    0.4169   -0.0000   -0.0000
  0.780   58.2567    0.3671   58.2430    0.4044   58.2514    0.4028   58.2330    0.3572   58.2982    0.4185   58.3088    0.4215   -0.0000   -0.0000
  0.790   58.3523    0.3712   58.3385    0.4088   58.3470    0.4072   58.3286    0.3614   58.3940    0.4231   58.4047    0.4261   -0.0000   -0.0000
  0.800   58.4495    0.3754   58.4357    0.4133   58.4442    0.4116   58.4258    0.3656   58.4914    0.4277   58.5020    0.4307   -0.0000   -0.0000
  0.810   58.5482    0.3797   58.5343    0.4178   58.5429    0.4161   58.5245    0.3699   58.5903    0.4324   58.6010    0.4354   -0.0000   -0.0000
  0.820   58.6486    0.3840   58.6346    0.4223   58.6432    0.4206   58.6248    0.3742   58.6908    0.4372   58.7015    0.4401   -0.0000   -0.0000
  0.830   58.7505    0.3884   58.7365    0.4269   58.7452    0.4252   58.7267    0.3786   58.7930    0.4420   58.8037    0.4449   -0.0000   -0.0000
  0.840   58.8541    0.3928   58.8400    0.4315   58.8487    0.4299   58.8302    0.3830   58.8967    0.4468   58.9074    0.4498   -0.0000   -0.0000
  0.850   58.9593    0.3972   58.9451    0.4362   58.9539    0.4345   58.9354    0.3875   59.0021    0.4517   59.0128    0.4547   -0.0000   -0.0000
  0.860   59.0661    0.4017   59.0519    0.4410   59.0607    0.4393   59.0422    0.3920   59.1092    0.4567   59.1199    0.4597   -0.0000   -0.0000
  0.870   59.1746    0.4063   59.1603    0.4458   59.1692    0.4441   59.1507    0.3965   59.2179    0.4617   59.2286    0.4647   -0.0000   -0.0000
  0.880   59.2848    0.4109   59.2705    0.4506   59.2793    0.4489   59.2608    0.4012   59.3283    0.4667   59.3391    0.4697   -0.0000   -0.0000
  0.890   59.3967    0.4155   59.3823    0.4555   59.3912    0.4539   59.3727    0.4058   59.4404    0.4719   59.4512    0.4749   -0.0000   -0.0000
  0.900   59.5104    0.4203   59.4958    0.4605   59.5048    0.4588   59.4863    0.4106   59.5542    0.4771   59.5651    0.4801   -0.0000   -0.0000
  0.910   59.6257    0.4250   59.6111    0.4655   59.6201    0.4639   59.6016    0.4153   59.6698    0.4823   59.6806    0.4853   -0.0000   -0.0000
  0.920   59.7428    0.4298   59.7281    0.4706   59.7372    0.4689   59.7187    0.4202   59.7871    0.4876   59.7980    0.4906   -0.0000   -0.0000
  0.930   59.8617    0.4347   59.8470    0.4758   59.8561    0.4741   59.8376    0.4251   59.9062    0.4930   59.9171    0.4960   -0.0000   -0.0000
  0.940   59.9824    0.4397   59.9676    0.4810   59.9767    0.4793   59.9582    0.4300   60.0272    0.4984   60.0381    0.5014   -0.0000   -0.0000
  0.950   60.1049    0.4447   60.0900    0.4862   60.0992    0.4846   60.0807    0.4350   60.1499    0.5040   60.1608    0.5069   -0.0000   -0.0000
  0.960   60.2293    0.4497   60.2142    0.4916   60.2235    0.4899   60.2050    0.4401   60.2745    0.5095   60.2854    0.5125   -0.0000   -0.0000
  0.970   60.3555    0.4548   60.3403    0.4970   60.3497    0.4953   60.3311    0.4452   60.4009    0.5152   60.4119    0.5182   -0.0000   -0.0000
  0.980   60.4835    0.4600   60.4683    0.5025   60.4777    0.5008   60.4592    0.4504   60.5292    0.5209   60.5402    0.5239   -0.0000   -0.0000
  0.990   60.6135    0.4653   60.5982    0.5080   60.6076    0.5063   60.5891    0.4557   60.6594    0.5267   60.6705    0.5297   -0.0000   -0.0000
  1.000   60.7454    0.4706   60.7300    0.5136   60.7395    0.5119   60.7210    0.4610   60.7916    0.5325   60.8026    0.5355   -0.0000   -0.0000
  1.010   60.8792    0.4760   60.8638    0.5193   60.8733    0.5176   60.8548    0.4664   60.9257    0.5384   60.9368    0.5414   -0.0000   -0.0000
  1.020   61.0150    0.4814   60.9995    0.5250   61.0091    0.5233   60.9905    0.4719   61.0617    0.5445   61.0728    0.5474   -0.0000   -0.0000
  1.030   61.1528    0.4869   61.1372    0.5308   61.1468    0.5292   61.1283    0.4774   61.1998    0.5505   61.2109    0.5535   -0.0000   -0.0000
  1.040   61.2927    0.4925   61.2769    0.5367   61.2866    0.5350   61.2680    0.4830   61.3399    0.5567   61.3510    0.5597   -0.0000   -0.0000
  1.050   61.4345    0.4982   61.4187    0.5427   61.4284    0.5410   61.4098    0.4887   61.4820    0.5629   61.4932    0.5659   -0.0000   -0.0000
  1.060   61.5784    0.5039   61.5625    0.5488   61.5723    0.5471   61.5537    0.4944   61.6262    0.5693   61.6374    0.5722   -0.0000   -0.0000
  1.070   61.7244    0.5097   61.7084    0.5549   61.7182    0.5532   61.6997    0.5002   61.7725    0.5757   61.7837    0.5787   -0.0000   -0.0000
  1.080   61.8725    0.5156   61.8564    0.5611   61.8663    0.5594   61.8478    0.5061   61.9209    0.5821   61.9322    0.5851   -0.0000   -0.0000
  1.090   62.0228    0.5215   62.0065    0.5674   62.0165    0.5657   61.9980    0.5121   62.0715    0.5887   62.0827    0.5917   -0.0000   -0.0000
  1.100   62.1752    0.5276   62.1589    0.5738   62.1689    0.5721   62.1504    0.5182   62.2242    0.5954   62.2355    0.5984   -0.0000   -0.0000
  1.110   62.3299    0.5337   62.3134    0.5802   62.3235    0.5786   62.3049    0.5243   62.3791    0.6021   62.3905    0.6051   -0.0000   -0.0000
  1.120   62.4867    0.5399   62.4701    0.5868   62.4803    0.5851   62.4618    0.5305   62.5363    0.6090   62.5476    0.6120   -0.0000   -0.0000
  1.130   62.6458    0.5462   62.6292    0.5934   62.6393    0.5918   62.6208    0.5368   62.6957    0.6159   62.7071    0.6189   -0.0000   -0.0000
  1.140   62.8072    0.5526   62.7904    0.6002   62.8007    0.5985   62.7822    0.5432   62.8574    0.6230   62.8689    0.6260   -0.0000   -0.0000
  1.150   62.9709    0.5591   62.9540    0.6070   62.9644    0.6053   62.9459    0.5497   63.0215    0.6301   63.0329    0.6331   -0.0000   -0.0000
  1.160   63.1370    0.5656   63.1200    0.6139   63.1304    0.6122   63.1119    0.5563   63.1879    0.6373   63.1993    0.6403   -0.0000   -0.0000
  1.170   63.3054    0.5723   63.2883    0.6210   63.2988    0.6193   63.2803    0.5630   63.3566    0.6447   63.3682    0.6477   -0.0000   -0.0000
  1.180   63.4763    0.5790   63.4591    0.6281   63.4696    0.6264   63.4511    0.5697   63.5278    0.6521   63.5394    0.6551   -0.0000   -0.0000
  1.190   63.6496    0.5859   63.6322    0.6353   63.6428    0.6336   63.6243    0.5766   63.7015    0.6597   63.7131    0.6627   -0.0000   -0.0000
  1.200   63.8254    0.5928   63.8079    0.6426   63.8185    0.6410   63.8001    0.5836   63.8776    0.6673   63.8892    0.6703   -0.0000   -0.0000
  1.210   64.0037    0.5999   63.9861    0.6501   63.9968    0.6484   63.9783    0.5906   64.0563    0.6751   64.0679    0.6781   -0.0000   -0.0000
  1.220   64.1845    0.6070   64.1668    0.6576   64.1775    0.6559   64.1591    0.5978   64.2375    0.6830   64.2492    0.6860   -0.0000   -0.0000
  1.230   64.3680    0.6143   64.3501    0.6653   64.3609    0.6636   64.3425    0.6051   64.4213    0.6910   64.4330    0.6940   -0.0000   -0.0000
  1.240   64.5540    0.6216   64.5360    0.6730   64.5469    0.6714   64.5285    0.6124   64.6077    0.6991   64.6195    0.7021   -0.0000   -0.0000
  1.250   64.7427    0.6291   64.7246    0.6809   64.7356    0.6792   64.7172    0.6199   64.7969    0.7074   64.8086    0.7104   -0.0000   -0.0000
  1.260   64.9341    0.6367   64.9159    0.6889   64.9269    0.6872   64.9086    0.6275   64.9887    0.7157   65.0005    0.7187   -0.0000   -0.0000
  1.270   65.1283    0.6444   65.1099    0.6971   65.1210    0.6954   65.1027    0.6353   65.1832    0.7242   65.1951    0.7272   -0.0000   -0.0000
  1.280   65.3252    0.6522   65.3067    0.7053   65.3179    0.7036   65.2996    0.6431   65.3806    0.7328   65.3924    0.7358   -0.0000   -0.0000
  1.290   65.5250    0.6601   65.5063    0.7137   65.5176    0.7120   65.4993    0.6511   65.5808    0.7416   65.5927    0.7446   -0.0000   -0.0000
  1.300   65.7276    0.6682   65.7088    0.7222   65.7202    0.7205   65.7019    0.6591   65.7838    0.7505   65.7958    0.7535   -0.0000   -0.0000
  1.310   65.9332    0.6763   65.9142    0.7308   65.9256    0.7291   65.9074    0.6673   65.9898    0.7595   66.0018    0.7625   -0.0000   -0.0000
  1.320   66.1417    0.6846   66.1226    0.7396   66.1341    0.7379   66.1158    0.6757   66.1988    0.7687   66.2108    0.7717   -0.0000   -0.0000
  1.330   66.3532    0.6931   66.3339    0.7485   66.3455    0.7468   66.3273    0.6841   66.4107    0.7780   66.4227    0.7810   -0.0000   -0.0000
  1.340   66.5677    0.7017   66.5483    0.7576   66.5600    0.7559   66.5418    0.6927   66.6257    0.7874   66.6378    0.7905   -0.0000   -0.0000
  1.350   66.7854    0.7104   66.7658    0.7668   66.7775    0.7651   66.7594    0.7015   66.8438    0.7971   66.8559    0.8001   -0.0000   -0.0000
  1.360   67.0062    0.7192   66.9865    0.7761   66.9983    0.7744   66.9801    0.7104   67.0651    0.8068   67.0772    0.8098   -0.0000   -0.0000
  1.370   67.2302    0.7282   67.2103    0.7856   67.2222    0.7839   67.2041    0.7194   67.2896    0.8168   67.3018    0.8198   -0.0000   -0.0000
  1.380   67.4574    0.7374   67.4374    0.7952   67.4493    0.7936   67.4313    0.7286   67.5173    0.8268   67.5295    0.8299   -0.0000   -0.0000
  1.390   67.6880    0.7467   67.6678    0.8051   67.6798    0.8034   67.6618    0.7379   67.7483    0.8371   67.7606    0.8401   -0.0000   -0.0000
  1.400   67.9219    0.7561   67.9015    0.8150   67.9136    0.8134   67.8956    0.7474   67.9827    0.8475   67.9951    0.8505   -0.0000   -0.0000
  1.410   68.1592    0.7657   68.1386    0.8252   68.1508    0.8235   68.1329    0.7570   68.2206    0.8581   68.2329    0.8611   -0.0000   -0.0000
  1.420   68.4000    0.7755   68.3792    0.8355   68.3915    0.8338   68.3736    0.7668   68.4619    0.8689   68.4743    0.8719   -0.0000   -0.0000
  1.430   68.6443    0.7854   68.6234    0.8460   68.6358    0.8443   68.6179    0.7768   68.7067    0.8799   68.7192    0.8829   -0.0000   -0.0000
  1.440   68.8922    0.7955   68.8711    0.8566   68.8836    0.8550   68.8657    0.7870   68.9552    0.8910   68.9677    0.8940   -0.0000   -0.0000
  1.450   69.1437    0.8058   69.1225    0.8675   69.1350    0.8658   69.1172    0.7973   69.2073    0.9024   69.2198    0.9054   -0.0000   -0.0000
  1.460   69.3990    0.8163   69.3775    0.8785   69.3902    0.8768   69.3725    0.8078   69.4631    0.9139   69.4757    0.9169   -0.0000   -0.0000
  1.470   69.6580    0.8269   69.6364    0.8897   69.6491    0.8881   69.6314    0.8185   69.7227    0.9256   69.7353    0.9287   -0.0000   -0.0000
  1.480   69.9209    0.8377   69.8991    0.9012   69.9119    0.8995   69.8943    0.8293   69.9862    0.9376   69.9989    0.9406   -0.0000   -0.0000
  1.490   70.1877    0.8488   70.1656    0.9128   70.1786    0.9111   70.1610    0.8404   70.2536    0.9497   70.2663    0.9528   -0.0000   -0.0000
  1.500   70.4584    0.8600   70.4362    0.9246   70.4493    0.9230   70.4318    0.8517   70.5250    0.9621   70.5377    0.9651   -0.0000   -0.0000
  1.510   70.7333    0.8714   70.7108    0.9367   70.7240    0.9350   70.7065    0.8631   70.8004    0.9747   70.8132    0.9777   -0.0000   -0.0000
  1.520   71.0122    0.8830   70.9896    0.9489   71.0028    0.9473   70.9854    0.8748   71.0800    0.9875   71.0929    0.9905   -0.0000   -0.0000
  1.530   71.2954    0.8949   71.2725    0.9614   71.2859    0.9597   71.2686    0.8867   71.3638    1.0006   71.3767    1.0036   -0.0000   -0.0000
  1.540   71.5828    0.9069   71.5597    0.9741   71.5732    0.9725   71.5559    0.8988   71.6519    1.0139   71.6649    1.0169   -0.0000   -0.0000
  1.550   71.8746    0.9192   71.8513    0.9871   71.8649    0.9854   71.8477    0.9111   71.9444    1.0274   71.9574    1.0304   -0.0000   -0.0000
  1.560   72.1708    0.9317   72.1473    1.0003   72.1610    0.9986   72.1439    0.9237   72.2413    1.0412   72.2543    1.0442   -0.0000   -0.0000
  1.570   72.4716    0.9444   72.4478    1.0137   72.4616    1.0120   72.4446    0.9365   72.5427    1.0553   72.5559    1.0583   -0.0000   -0.0000
  1.580   72.7769    0.9574   72.7530    1.0274   72.7668    1.0257   72.7499    0.9496   72.8488    1.0696   72.8620    1.0726   -0.0000   -0.0000
  1.590   73.0870    0.9707   73.0628    1.0413   73.0768    1.0397   73.0600    0.9629   73.1596    1.0842   73.1728    1.0872   -0.0000   -0.0000
  1.600   73.4018    0.9841   73.3774    1.0555   73.3915    1.0539   73.3748    0.9764   73.4752    1.0990   73.4885    1.1021   -0.0000   -0.0000
  1.610   73.7216    0.9979   73.6969    1.0700   73.7111    1.0684   73.6945    0.9902   73.7957    1.1142   73.8091    1.1172   -0.0000   -0.0000
  1.620   74.0463    1.0119   74.0214    1.0848   74.0357    1.0832   74.0192    1.0043   74.1212    1.1297   74.1346    1.1327   -0.0000   -0.0000
  1.630   74.3761    1.0262   74.3509    1.0999   74.3654    1.0982   74.3489    1.0187   74.4518    1.1454   74.4653    1.1484   -0.0000   -0.0000
  1.640   74.7111    1.0408   74.6857    1.1152   74.7002    1.1136   74.6839    1.0333   74.7876    1.1615   74.8011    1.1645   -0.0000   -0.0000
  1.650   75.0513    1.0556   75.0257    1.1309   75.0403    1.1293   75.0241    1.0483   75.1287    1.1779   75.1423    1.1809   -0.0000   -0.0000
  1.660   75.3970    1.0708   75.3710    1.1469   75.3858    1.1452   75.3698    1.0635   75.4752    1.1946   75.4888    1.1976   -0.0000   -0.0000
  1.670   75.7482    1.0863   75.7219    1.1632   75.7369    1.1615   75.7209    1.0791   75.8272    1.2117   75.8409    1.2146   -0.0000   -0.0000
  1.680   76.1049    1.1021   76.0784    1.1798   76.0935    1.1782   76.0776    1.0950   76.1848    1.2291   76.1986    1.2320   -0.0000   -0.0000
  1.690   76.4674    1.1182   76.4406    1.1968   76.4558    1.1952   76.4401    1.1112   76.5482    1.2468   76.5621    1.2498   -0.0000   -0.0000
  1.700   76.8358    1.1346   76.8087    1.2141   76.8240    1.2125   76.8085    1.1277   76.9175    1.2649   76.9314    1.2679   -0.0000   -0.0000
  1.710   77.2102    1.1514   77.1828    1.2318   77.1982    1.2302   77.1828    1.1446   77.2928    1.2835   77.3068    1.2864   -0.0000   -0.0000
  1.720   77.5906    1.1686   77.5629    1.2498   77.5785    1.2482   77.5632    1.1619   77.6742    1.3024   77.6882    1.3053   -0.0000   -0.0000
  1.730   77.9773    1.1861   77.9493    1.2683   77.9650    1.2667   77.9499    1.1795   78.0619    1.3217   78.0760    1.3246   -0.0000   -0.0000
  1.740   78.3704    1.2040   78.3420    1.2871   78.3579    1.2855   78.3430    1.1975   78.4559    1.3414   78.4701    1.3443   -0.0000   -0.0000
  1.750   78.7699    1.2223   78.7413    1.3064   78.7573    1.3048   78.7425    1.2159   78.8565    1.3615   78.8708    1.3645   -0.0000   -0.0000
  1.760   79.1762    1.2409   79.1472    1.3260   79.1634    1.3244   79.1488    1.2347   79.2638    1.3821   79.2781    1.3851   -0.0000   -0.0000
  1.770   79.5892    1.2600   79.5599    1.3461   79.5762    1.3445   79.5618    1.2539   79.6779    1.4031   79.6923    1.4061   -0.0000   -0.0000
  1.780   80.0092    1.2795   79.9796    1.3666   79.9960    1.3650   79.9818    1.2736   80.0990    1.4246   80.1135    1.4276   -0.0000   -0.0000
  1.790   80.4363    1.2995   80.4063    1.3876   80.4230    1.3860   80.4089    1.2937   80.5272    1.4466   80.5418    1.4495   -0.0000   -0.0000
  1.800   80.8708    1.3199   80.8404    1.4091   80.8572    1.4075   80.8433    1.3142   80.9628    1.4691   80.9774    1.4720   -0.0000   -0.0000
  1.810   81.3126    1.3408   81.2819    1.4310   81.2988    1.4295   81.2852    1.3352   81.4058    1.4920   81.4205    1.4950   -0.0000   -0.0000
  1.820   81.7621    1.3621   81.7310    1.4535   81.7481    1.4519   81.7347    1.3567   81.8564    1.5155   81.8713    1.5185   -0.0000   -0.0000
  1.830   82.2194    1.3839   82.1879    1.4764   82.2052    1.4749   82.1920    1.3787   82.3149    1.5396   82.3299    1.5425   -0.0000   -0.0000
  1.840   82.6846    1.4063   82.6527    1.4999   82.6702    1.4984   82.6573    1.4012   82.7815    1.5642   82.7965    1.5671   -0.0000   -0.0000
  1.850   83.1581    1.4291   83.1258    1.5240   83.1434    1.5224   83.1308    1.4243   83.2562    1.5894   83.2713    1.5923   -0.0000   -0.0000
  1.860   83.6399    1.4526   83.6072    1.5486   83.6250    1.5470   83.6126    1.4479   83.7393    1.6152   83.7545    1.6181   -0.0000   -0.0000
  1.870   84.1304    1.4765   84.0972    1.5738   84.1152    1.5722   84.1031    1.4720   84.2311    1.6415   84.2463    1.6444   -0.0000   -0.0000
  1.880   84.6296    1.5011   84.5960    1.5996   84.6142    1.5981   84.6023    1.4968   84.7316    1.6686   84.7470    1.6715   -0.0000   -0.0000
  1.890   85.1378    1.5262   85.1038    1.6260   85.1221    1.6245   85.1106    1.5221   85.2413    1.6963   85.2567    1.6991   -0.0000   -0.0000
  1.900   85.6553    1.5520   85.6208    1.6531   85.6393    1.6516   85.6281    1.5481   85.7602    1.7246   85.7757    1.7275   -0.0000   -0.0000
  1.910   86.1822    1.5784   86.1473    1.6808   86.1660    1.6793   86.1551    1.5747   86.2886    1.7537   86.3042    1.7566   -0.0000   -0.0000
  1.920   86.7188    1.6055   86.6834    1.7093   86.7024    1.7078   86.6918    1.6021   86.8267    1.7835   86.8425    1.7863   -0.0000   -0.0000
  1.930   87.2655    1.6332   87.2296    1.7384   87.2487    1.7369   87.2385    1.6301   87.3749    1.8140   87.3908    1.8169   -0.0000   -0.0000
  1.940   87.8223    1.6617   87.7859    1.7683   87.8053    1.7668   87.7954    1.6588   87.9333    1.8454   87.9493    1.8482   -0.0000   -0.0000
  1.950   88.3897    1.6909   88.3527    1.7990   88.3723    1.7975   88.3628    1.6882   88.5023    1.8775   88.5184    1.8803   -0.0000   -0.0000
  1.960   88.9678    1.7209   88.9303    1.8304   88.9501    1.8290   88.9410    1.7185   89.0820    1.9105   89.0982    1.9133   -0.0000   -0.0000
  1.970   89.5569    1.7516   89.5190    1.8627   89.5390    1.8613   89.5303    1.7495   89.6729    1.9443   89.6892    1.9471   -0.0000   -0.0000
  1.980   90.1575    1.7832   90.1190    1.8958   90.1392    1.8944   90.1309    1.7813   90.2752    1.9790   90.2916    1.9818   -0.0000   -0.0000
  1.990   90.7697    1.8156   90.7306    1.9298   90.7511    1.9284   90.7433    1.8141   90.8892    2.0147   90.9058    2.0174   -0.0000   -0.0000
  2.000   91.3939    1.8489   91.3542    1.9648   91.3750    1.9634   91.3676    1.8477   91.5153    2.0513   91.5319    2.0540   -0.0000   -0.0000
  2.010   92.0305    1.8831   91.9902    2.0006   92.0111    1.9992   92.0043    1.8822   92.1537    2.0889   92.1705    2.0916   -0.0000   -0.0000
  2.020   92.6797    1.9182   92.6388    2.0375   92.6600    2.0361   92.6536    1.9177   92.8048    2.1275   92.8218    2.1302   -0.0000   -0.0000
  2.030   93.3419    1.9543   93.3004    2.0753   93.3219    2.0740   93.3160    1.9541   93.4691    2.1672   93.4862    2.1699   -0.0000   -0.0000
  2.040   94.0176    1.9914   93.9754    2.1143   93.9972    2.1129   93.9919    1.9916   94.1468    2.2081   94.1640    2.2107   -0.0000   -0.0000
  2.050   94.7071    2.0296   94.6643    2.1543   94.6863    2.1530   94.6815    2.0302   94.8384    2.2500   94.8558    2.2527   -0.0000   -0.0000
  2.060   95.4108    2.0689   95.3673    2.1955   95.3895    2.1942   95.3854    2.0699   95.5442    2.2932   95.5617    2.2958   -0.0000   -0.0000
  2.070   96.1291    2.1093   96.0849    2.2379   96.1074    2.2366   96.1039    2.1108   96.2648    2.3377   96.2824    2.3403   -0.0000   -0.0000
  2.080   96.8625    2.1509   96.8176    2.2814   96.8404    2.2802   96.8375    2.1528   97.0004    2.3834   97.0183    2.3860   -0.0000   -0.0000
  2.090   97.6114    2.1938   97.5657    2.3263   97.5889    2.3251   97.5867    2.1961   97.7517    2.4305   97.7697    2.4330   -0.0000   -0.0000
  2.100   98.3764    2.2379   98.3299    2.3726   98.3533    2.3713   98.3518    2.2407   98.5191    2.4790   98.5372    2.4815   -0.0000   -0.0000
  2.110   99.1578    2.2834   99.1105    2.4202   99.1343    2.4190   99.1335    2.2867   99.3030    2.5289   99.3213    2.5314   -0.0000   -0.0000
  2.120   99.9563    2.3302   99.9082    2.4692   99.9322    2.4680   99.9322    2.3341  100.1040    2.5804  100.1224    2.5829   -0.0000   -0.0000
  2.130  100.7723    2.3785  100.7233    2.5198  100.7477    2.5186  100.7485    2.3830  100.9226    2.6335  100.9413    2.6359   -0.0000   -0.0000
  2.140  101.6064    2.4284  101.5566    2.5719  101.5813    2.5708  101.5829    2.4334  101.7595    2.6882  101.7783    2.6906   -0.0000   -0.0000
  2.150  102.4592    2.4797  102.4086    2.6257  102.4336    2.6246  102.4361    2.4854  102.6151    2.7446  102.6341    2.7470   -0.0000   -0.0000
  2.160  103.3314    2.5328  103.2798    2.6812  103.3052    2.6802  103.3086    2.5390  103.4901    2.8029  103.5093    2.8052   -0.0000   -0.0000
  2.170  104.2235    2.5875  104.1710    2.7385  104.1967    2.7375  104.2011    2.5945  104.3852    2.8630  104.4046    2.8653   -0.0000   -0.0000
  2.180  105.1363    2.6441  105.0827    2.7977  105.1089    2.7967  105.1142    2.6517  105.3010    2.9251  105.3206    2.9274   -0.0000   -0.0000
  2.190  106.0704    2.7025  106.0158    2.8588  106.0423    2.8578  106.0487    2.7109  106.2382    2.9893  106.2580    2.9915   -0.0000   -0.0000
  2.200  107.0265    2.7629  106.9709    2.9219  106.9978    2.9210  107.0053    2.7720  107.1976    3.0556  107.2177    3.0578   -0.0000   -0.0000
  2.210  108.0055    2.8253  107.9488    2.9872  107.9761    2.9863  107.9847    2.8353  108.1800    3.1241  108.2002    3.1263   -0.0000   -0.0000
  2.220  109.0081    2.8899  108.9503    3.0547  108.9781    3.0538  108.9879    2.9007  109.1861    3.1950  109.2065    3.1971   -0.0000   -0.0000
  2.230  110.0352    2.9568  109.9762    3.1245  110.0044    3.1237  110.0155    2.9684  110.2167    3.2684  110.2374    3.2704   -0.0000   -0.0000
  2.240  111.0877    3.0259  111.0275    3.1968  111.0561    3.1960  111.0685    3.0385  111.2729    3.3443  111.2938    3.3463   -0.0000   -0.0000
  2.250  112.1664    3.0976  112.1050    3.2716  112.1341    3.2709  112.1478    3.1111  112.3555    3.4230  112.3767    3.4249   -0.0000   -0.0000
  2.260  113.2725    3.1718  113.2097    3.3492  113.2393    3.3485  113.2545    3.1864  113.4655    3.5044  113.4869    3.5063   -0.0000   -0.0000
  2.270  114.4068    3.2488  114.3427    3.4295  114.3728    3.4289  114.3894    3.2644  114.6038    3.5889  114.6256    3.5907   -0.0000   -0.0000
  2.280  115.5704    3.3286  115.5050    3.5128  115.5355    3.5123  115.5538    3.3454  115.7717    3.6764  115.7937    3.6782   -0.0000   -0.0000
  2.290  116.7646    3.4114  116.6977    3.5993  116.7288    3.5988  116.7487    3.4294  116.9703    3.7673  116.9925    3.7690   -0.0000   -0.0000
  2.300  117.9904    3.4974  117.9220    3.6890  117.9536    3.6885  117.9753    3.5166  118.2006    3.8616  118.2232    3.8632   -0.0000   -0.0000
  2.310  119.2492    3.5867  119.1792    3.7821  119.2114    3.7817  119.2349    3.6072  119.4641    3.9595  119.4870    3.9611   -0.0000   -0.0000
  2.320  120.5422    3.6795  120.4707    3.8789  120.5034    3.8786  120.5288    3.7013  120.7620    4.0613  120.7852    4.0627   -0.0000   -0.0000
  2.330  121.8709    3.7759  121.7976    3.9795  121.8310    3.9793  121.8583    3.7993  122.0957    4.1671  122.1192    4.1684   -0.0000   -0.0000
  2.340  123.2366    3.8763  123.1617    4.0841  123.1956    4.0840  123.2251    3.9011  123.4667    4.2771  123.4906    4.2784   -0.0000   -0.0000
  2.350  124.6411    3.9807  124.5643    4.1930  124.5989    4.1929  124.6306    4.0072  124.8766    4.3916  124.9008    4.3928   -0.0000   -0.0000
  2.360  126.0858    4.0895  126.0072    4.3064  126.0424    4.3063  126.0765    4.1177  126.3270    4.5109  126.3516    4.5120   -0.0000   -0.0000
  2.370  127.5726    4.2029  127.4920    4.4245  127.5279    4.4245  127.5644    4.2328  127.8197    4.6351  127.8447    4.6361   -0.0000   -0.0000
  2.380  129.1033    4.3211  129.0206    4.5476  129.0572    4.5477  129.0964    4.3529  129.3565    4.7647  129.3818    4.7656   -0.0000   -0.0000
  2.390  130.6798    4.4444  130.5949    4.6760  130.6323    4.6763  130.6742    4.4783  130.9394    4.8998  130.9651    4.9006   -0.0000   -0.0000
  2.400  132.3042    4.5731  132.2171    4.8100  132.2553    4.8104  132.3000    4.6091  132.5704    5.0409  132.5965    5.0416   -0.0000   -0.0000
  2.410  133.9787    4.7076  133.8892    4.9501  133.9282    4.9505  133.9760    4.7459  134.2517    5.1883  134.2783    5.1888   -0.0000   -0.0000
  2.420  135.7055    4.8482  135.6136    5.0964  135.6534    5.0970  135.7045    4.8889  135.9858    5.3424  136.0129    5.3428   -0.0000   -0.0000
  2.430  137.4873    4.9953  137.3928    5.2494  137.4335    5.2502  137.4879    5.0385  137.7750    5.5035  137.8026    5.5038   -0.0000   -0.0000
  2.440  139.3266    5.1494  139.2294    5.4096  139.2710    5.4105  139.3290    5.1951  139.6221    5.6722  139.6502    5.6724   -0.0000   -0.0000
  2.450  141.2262    5.3107  141.1262    5.5774  141.1687    5.5784  141.2306    5.3593  141.5298    5.8490  141.5585    5.8490   -0.0000   -0.0000
  2.460  143.1891    5.4799  143.0861    5.7533  143.1297    5.7545  143.1955    5.5315  143.5013    6.0343  143.5305    6.0341   -0.0000   -0.0000
  2.470  145.2185    5.6575  145.1124    5.9379  145.1570    5.9392  145.2271    5.7123  145.5396    6.2287  145.5694    6.2284   -0.0000   -0.0000
  2.480  147.3179    5.8439  147.2085    6.1316  147.2542    6.1331  147.3288    5.9021  147.6483    6.4329  147.6786    6.4324   -0.0000   -0.0000
  2.490  149.4908    6.0399  149.3780    6.3352  149.4248    6.3369  149.5042    6.1018  149.8309    6.6476  149.8619    6.6469   -0.0000   -0.0000
  2.500  151.7412    6.2462  151.6248    6.5494  151.6727    6.5513  151.7573    6.3118  152.0915    6.8734  152.1232    6.8725   -0.0000   -0.0000
  2.510  154.0733    6.4633  153.9530    6.7749  154.0023    6.7770  154.0923    6.5331  154.4343    7.1111  154.4667    7.1100   -0.0000   -0.0000
  2.520  156.4916    6.6923  156.3673    7.0125  156.4178    7.0148  156.5136    6.7664  156.8639    7.3618  156.8970    7.3604   -0.0000   -0.0000
  2.530  159.0010    6.9338  158.8724    7.2632  158.9243    7.2657  159.0262    7.0127  159.3850    7.6262  159.4189    7.6245   -0.0000   -0.0000
  2.540  161.6066    7.1889  161.4734    7.5278  161.5268    7.5306  161.6353    7.2728  162.0030    7.9054  162.0378    7.9035   -0.0000   -0.0000
  2.550  164.3141    7.4587  164.1761    7.8076  164.2310    7.8107  164.3465    7.5479  164.7235    8.2007  164.7591    8.1985   -0.0000   -0.0000
  2.560  167.1296    7.7442  166.9865    8.1037  167.0430    8.1071  167.1659    7.8392  167.5527    8.5132  167.5892    8.5107   -0.0000   -0.0000
  2.570  170.0595    8.0468  169.9111    8.4173  169.9693    8.4211  170.1002    8.1480  170.4971    8.8443  170.5346    8.8416   -0.0000   -0.0000
  2.580  173.1112    8.3679  172.9570    8.7501  173.0170    8.7541  173.1564    8.4757  173.5639    9.1957  173.6025    9.1926   -0.0000   -0.0000
  2.590  176.2922    8.7090  176.1318    9.1034  176.1937    9.1079  176.3423    8.8240  176.7610    9.5689  176.8007    9.5655   -0.0000   -0.0000
  2.600  179.6109    9.0719  179.4440    9.4792  179.5080    9.4841  179.6664    9.1945  180.0967    9.9660  180.1376    9.9621   -0.0000   -0.0000
  2.610  183.0766    9.4585  182.9027    9.8794  182.9688    9.8847  183.1377    9.5894  183.5803   10.3889  183.6225   10.3847   -0.0000   -0.0000
  2.620  186.6990    9.8708  186.5177   10.3062  186.5860   10.3120  186.7663   10.0107  187.2218   10.8400  187.2653   10.8354   -0.0000   -0.0000
  2.630  190.4892   10.3114  190.2998   10.7621  190.3706   10.7684  190.5631   10.4610  191.0322   11.3220  191.0770   11.3169   -0.0000   -0.0000
  2.640  194.4590   10.7828  194.2610   11.2497  194.3344   11.2565  194.5401   10.9429  195.0234   11.8377  195.0698   11.8321   -0.0000   -0.0000
  2.650  198.6215   11.2881  198.4142   11.7721  198.4904   11.7796  198.7103   11.4596  199.2086   12.3905  199.2566   12.3843   -0.0000   -0.0000
  2.660  202.9910   11.8306  202.7737   12.3329  202.8529   12.3411  203.0882   12.0145  203.6023   12.9839  203.6521   12.9771   -0.0000   -0.0000
  2.670  207.5834   12.4142  207.3554   12.9358  207.4377   12.9448  207.6897   12.6116  208.2205   13.6222  208.2722   13.6148   -0.0000   -0.0000
  2.680  212.4161   13.0430  212.1764   13.5854  212.2623   13.5952  212.5323   13.2553  213.0807   14.3100  213.1345   14.3020   -0.0000   -0.0000
  2.690  217.5086   13.7221  217.2562   14.2866  217.3458   14.2973  217.6355   13.9505  218.2026   15.0528  218.2585   15.0441   -0.0000   -0.0000
  2.700  222.8823   14.4570  222.6162   15.0451  222.7097   15.0568  223.0209   14.7031  223.6077   15.8566  223.6660   15.8471   -0.0000   -0.0000
  2.710  228.5611   15.2540  228.2800   15.8674  228.3779   15.8802  228.7125   15.5196  229.3202   16.7284  229.3812   16.7180   -0.0000   -0.0000
  2.720  234.5718   16.1205  234.2743   16.7611  234.3769   16.7752  234.7372   16.4076  235.3671   17.6761  235.4309   17.6649   -0.0000   -0.0000
  2.730  240.9444   17.0649  240.6289   17.7347  240.7366   17.7502  241.1250   17.3757  241.7785   18.7091  241.8453   18.6968   -0.0000   -0.0000
  2.740  247.7124   18.0968  247.3771   18.7982  247.4904   18.8152  247.9097   18.4340  248.5884   19.8379  248.6586   19.8246   -0.0000   -0.0000
  2.750  254.9139   19.2278  254.5567   19.9633  254.6761   19.9820  255.1295   19.5941  255.8349   21.0750  255.9088   21.0606   -0.0000   -0.0000
  2.760  262.5916   20.4709  262.2104   21.2433  262.3364   21.2641  262.8275   20.8699  263.5614   22.4350  263.6394   22.4193   -0.0000   -0.0000
  2.770  270.7946   21.8418  270.3865   22.6543  270.5199   22.6773  271.0528   22.2772  271.8170   23.9347  271.8995   23.9177   -0.0000   -0.0000
  2.780  279.5783   23.3588  279.1403   24.2149  279.2818   24.2404  279.8612   23.8351  280.6578   25.5944  280.7454   25.5759   -0.0000   -0.0000
  2.790  289.0065   25.0437  288.5350   25.9474  288.6856   25.9758  289.3168   25.5661  290.1481   27.4380  290.2413   27.4178   -0.0000   -0.0000
  2.800  299.1527   26.9224  298.6436   27.8783  298.8042   27.9101  299.4934   27.4971  300.3618   29.4939  300.4612   29.4719   -0.0000   -0.0000
  2.810  310.1018   29.0263  309.5500   30.0396  309.7219   30.0752  310.4764   29.6604  311.3843   31.7965  311.4908   31.7726   -0.0000   -0.0000
  2.820  321.9524   31.3933  321.3523   32.4697  321.5369   32.5098  322.3649   32.0953  323.3152   34.3873  323.4297   34.3613   -0.0000   -0.0000
  2.830  334.8202   34.0695  334.1649   35.2159  334.3636   35.2613  335.2751   34.8497  336.2705   37.3173  336.3941   37.2889   -0.0000   -0.0000
  2.840  348.8409   37.1121  348.1221   38.3361  348.3370   38.3876  349.3434   37.9824  350.3870   40.6488  350.5210   40.6178   -0.0000   -0.0000
  2.850  364.1756   40.5916  363.3833   41.9022  363.6166   41.9610  364.7317   41.5669  365.8265   44.4595  365.9724   44.4258   -0.0000   -0.0000
  2.860  381.0162   44.5967  380.1383   46.0042  380.3927   46.0718  381.6328   45.6949  382.7817   48.8469  382.9414   48.8101   -0.0000   -0.0000
  2.870  399.5933   49.2398  398.6149   50.7563  398.8937   50.8346  400.2785   50.4832  401.4839   53.9345  401.6598   53.8944   -0.0000   -0.0000
  2.880  420.1864   54.6652  419.0890   56.3048  419.3962   56.3961  420.9493   56.0813  422.2133   59.8809  422.4082   59.8373   -0.0000   -0.0000
  2.890  443.1371   61.0601  441.8973   62.8395  442.2377   62.9468  443.9882   62.6838  445.3114   66.8922  445.5289   66.8447   -0.0000   -0.0000
  2.900  468.8667   68.6716  467.4548   70.6104  467.8345   70.7378  469.8180   70.5474  471.1987   75.2401  471.4433   75.1887   -0.0000   -0.0000
  2.910  497.9002   77.8305  496.2778   79.9520  496.7043   80.1048  498.9650   80.0159  500.3979   85.2886  500.6754   85.2333   -0.0001   -0.0000
  2.920  530.8989   88.9876  529.0158   91.3194  529.4987   91.5051  532.0917   91.5584  533.5646   97.5341  533.8826   97.4751   -0.0007   -0.0000
  2.930  568.7052  102.7700  566.4942  105.3448  567.0456  105.5736  570.0404  105.8275  571.5302  112.6668  571.8986  112.6048   -0.0050   -0.0000
  2.940  612.4044  120.0694  609.7742  122.9250  610.4099  123.2116  613.8941  123.7518  615.3584  131.6675  615.7907  131.6044   -0.0309   -0.0000
  2.950  663.4104  142.1859  660.2341  145.3658  660.9748  145.7316  665.0595  146.6857  666.4219  155.9660  666.9366  155.9053   -0.1649   -0.0001
  2.960  723.5832  171.0712  719.6802  174.6215  720.5529  175.0990  725.3778  176.6628  726.5007  187.7052  727.1238  187.6535   -0.7641   -0.0004
  2.970  795.3813  209.7509  790.4881  213.7141  791.5285  214.3541  797.2643  216.8357  797.8961  230.1994  798.6650  230.1701   -3.0935   -0.0015
  2.980  882.0361  263.0941  875.7575  267.4892  877.0117  268.3739  883.8509  272.2731  883.5197  288.7596  884.4896  288.7788  -11.0066   -0.0055
  2.990  987.6523  339.2661  979.3787  344.0393  980.9030  345.3082  989.0130  351.4594  986.8004  372.2269  988.0538  372.3481  -34.4990   -0.0182
  3.000 1116.8520  452.5860 1105.6235  457.4812 1107.4729  459.3817 1116.8266  469.2075 1110.8660  495.9004 1112.5269  496.2372  -94.9291   -0.0531
  3.010 1272.5265  629.2528 1256.8274  633.4740 1259.0010  636.4627 1268.8432  652.3730 1255.1627  687.0758 1257.4059  687.8837 -227.1092   -0.1366
  3.020 1446.4263  918.3005 1424.0066  919.6208 1426.2359  924.5481 1433.5164  950.2184 1403.4405  994.2472 1406.4381  996.1229 -466.0477   -0.3078
  3.030 1584.3474 1406.0588 1552.8365 1398.5761 1553.8233 1406.8405 1549.5431 1445.3388 1485.3948 1492.5568 1488.8869 1496.8472 -808.7841   -0.6051
  3.040 1481.3139 2185.8771 1443.6611 2155.8460 1439.0519 2168.1156 1406.3967 2211.2205 1287.6662 2224.7210 1289.0792 2233.4116 *********   -1.0359
  3.050  684.0498 3041.7785  669.7474 2975.7625  653.1652 2984.4887  589.6112 3000.8469  464.4246 2905.6172  457.1652 2915.6473 *********   -1.5529
  3.060 -718.9553 3033.1752 -674.8619 2978.9984 -692.6539 2971.2778 -751.3562 2941.5371 -755.6056 2793.8056 -767.8343 2793.8561 *********   -2.0630
  3.070 ********* 2138.2573 ********* 2133.9100 ********* 2120.8986 ********* 2072.7773 ********* 1996.4748 ********* 1990.4818 *********   -2.4762
  3.080 ********* 1342.5433 ********* 1354.9483 ********* 1345.9559 ********* 1308.9822 ********* 1285.9608 ********* 1280.8430 -765.5023   -2.7575
  3.090 *********  864.1494 *********  874.8609 *********  869.4748 *********  845.9546 *********  842.4509 *********  839.1084 -610.3420   -2.9818
  3.100 *********  592.8873 *********  598.1899 *********  594.7865 *********  579.4862 *********  581.5463 *********  579.5369 *********   -3.4696
  3.110 *********  432.8322 *********  434.7127 *********  431.8887 *********  420.1169 *********  423.9577 *********  422.8861 *********   -4.5599
  3.120 -964.2063  293.0019 -955.8137  302.2244 -953.3920  299.9970 -941.4942  293.1660 -928.9430  299.5504 -928.5111  298.6947 *********   -5.5896
  3.130 -836.6195  211.9974 -834.0990  220.1069 -832.0859  219.0143 -822.7820  216.2533 -814.8313  221.4210 -814.4922  220.7553 -973.5620   -5.9473
  3.140 -739.7130  164.7603 -739.1299  170.6345 -737.5579  169.9304 -730.3820  168.6312 -724.8126  172.7078 -724.5038  172.1605 -133.7727   -5.9965
  3.150 -662.9192  131.4636 -663.0580  135.8024 -661.7708  135.2925 -656.0292  134.7260 -651.9794  137.9934 -651.6924  137.5497   -9.0968   -5.9998
  3.160 -599.7737  106.7416 -600.2194  110.0313 -599.1302  109.6408 -594.4279  109.5048 -591.4215  112.1449 -591.1576  111.7846   -0.3946   -6.0000
  3.170 -546.7206   87.8750 -547.3010   90.4214 -546.3569   90.1108 -542.4456   90.2419 -540.1834   92.3846 -539.9424   92.0897   -0.0146   -6.0000
  3.180 -501.4509   73.1675 -502.0860   75.1697 -501.2517   74.9151 -497.9620   75.2146 -496.2449   76.9576 -496.0251   76.7140   -0.0010   -6.0000
  3.190 -462.3337   61.4914 -462.9845   63.0847 -462.2348   62.8707 -459.4450   63.2756 -458.1356   64.6939 -457.9348   64.4909   -0.0001   -6.0000
  3.200 -428.1651   52.0720 -428.8121   53.3514 -428.1282   53.1674 -425.7482   53.6360 -424.7491   54.7883 -424.5651   54.6180   -0.0000   -6.0000
  3.210 -398.0301   44.3632 -398.6643   45.3977 -398.0319   45.2361 -395.9931   45.7401 -395.2336   46.6727 -395.0642   46.5291   -0.0000   -6.0000
  3.220 -371.2186   37.9719 -371.8368   38.8124 -371.2442   38.6681 -369.4939   39.1877 -368.9213   39.9375 -368.7647   39.8159   -0.0000   -6.0000
  3.230 -347.1695   32.6098 -347.7713   33.2950 -347.2091   33.1639 -345.7060   33.6849 -345.2807   34.2819 -345.1352   34.1787   -0.0000   -6.0000
  3.240 -325.4317   28.0616 -326.0188   28.6213 -325.4788   28.5005 -324.1904   29.0125 -323.8816   29.4810 -323.7460   29.3934   -0.0000   -6.0000
  3.250 -305.6366   24.1644 -306.2120   24.6222 -305.6870   24.5093 -304.5875   25.0043 -304.3712   25.3644 -304.2443   25.2902   -0.0000   -6.0000
  3.260 -287.4782   20.7932 -288.0455   21.1678 -287.5289   21.0611 -286.5977   21.5326 -286.4547   21.8012 -286.3355   21.7388   -0.0000   -6.0000
  3.270 -270.6971   17.8513 -271.2609   18.1579 -270.7462   18.0561 -269.9670   18.4985 -269.8814   18.6900 -269.7693   18.6379   -0.0017   -6.0000
  3.280 -255.0690   15.2630 -255.6344   15.5143 -255.1151   15.4164 -254.4749   15.8246 -254.4334   15.9516 -254.3279   15.9087   -0.0418   -6.0000
  3.290 -240.3941   12.9695 -240.9675   13.1763 -240.4365   13.0817 -239.9252   13.4503 -239.9161   13.5243 -239.8170   13.4897   -0.6740   -6.0003
  3.300 -226.4890   10.9255 -227.0778   11.0970 -226.5272   11.0055 -226.1372   11.3288 -226.1496   11.3608 -226.0570   11.3337   -7.0764   -6.0029
  3.310 -213.1778    9.0973 -213.7913    9.2420 -213.2117    9.1536 -212.9372    9.4251 -212.9606    9.4265 -212.8751    9.4058  -48.3234   -6.0206
  3.320 -200.2830    7.4619 -200.9334    7.5874 -200.3131    7.5029 -200.1499    7.7149 -200.1730    7.6988 -200.0960    7.6833 -214.6295   -6.0995
  3.330 -187.6137    6.0052 -188.3173    6.1192 -187.6408    6.0402 -187.5862    6.1839 -187.5967    6.1675 -187.5303    6.1541 -620.0216   -6.3274
  3.340 -174.9374    4.7191 -175.7183    4.8287 -174.9632    4.7586 -175.0174    4.8254 -175.0042    4.8356 -174.9492    4.8168 *********   -6.7555
  3.350 -161.9108    3.6534 -162.8052    3.7605 -161.9388    3.7117 -162.1149    3.6861 -162.0792    3.7560 -162.0245    3.7244 *********   -7.2787
  3.360 -148.1904    3.0324 -149.2427    3.1321 -148.2292    3.1283 -148.5339    2.9658 -148.4681    3.1175 -148.4080    3.0873 *********   -7.6946
  3.370 -133.3709    3.0219 -134.6507    3.1087 -133.4363    3.1801 -133.8541    2.8345 -133.7258    3.1317 -133.6773    3.1038 -587.8097   -7.9107
  3.380 -116.6597    4.0229 -118.2874    4.0694 -116.7821    4.2803 -117.2928    3.6962 -117.0829    4.2699 -117.0593    4.2272 -212.4704   -7.9887
  3.390  -96.8721    7.0395  -99.0513    6.9543  -97.1169    7.4504  -97.6750    6.5463  -97.4053    7.6405  -97.4162    7.5487 -111.6498   -8.0298
  3.400  -72.2691   14.4326  -75.3405   13.9393  -72.7855   15.0672  -73.2759   13.7367  -73.1283   15.8301  -73.1679   15.6118 -238.1523   -8.1173
  3.410  -40.9298   32.1464  -45.3609   30.4085  -42.0691   33.0385  -42.2266   31.2028  -43.0487   35.1796  -43.0082   34.6661 -601.7332   -8.3384
  3.420   -5.6350   75.0293  -11.2290   69.7319   -8.1837   75.8441   -7.5295   73.6683  -12.6284   80.0682  -11.9277   79.1362 *********   -8.7701
  3.430    0.3077  164.7719   -1.5095  152.9173   -4.5294  163.2554   -2.5451  161.6722  -17.7277  163.0217  -15.5357  163.1848 *********   -9.3978
  3.440  -96.2689  242.6074  -86.3403  232.9864  -97.9963  235.5306  -96.8359  236.4168 -106.3579  220.7165 -105.9090  222.8408 *********  -10.0736
  3.450 -197.9115  198.6959 -188.3400  199.8614 -194.0350  194.6474 -195.0304  193.8545 -190.2508  182.0055 -190.8887  182.9467 *********  -10.6216
  3.460 -220.2550  133.5417 -215.9898  136.8871 -217.0276  132.8705 -216.9354  130.7986 -210.8750  126.1521 -211.3915  126.6100 -995.9862  -10.9876
  3.470 -213.2175   93.4381 -211.4427   95.9368 -211.2810   93.6330 -210.3455   91.6992 -205.8236   89.9796 -206.2720   90.2626 -721.3609  -11.2527
  3.480 -201.0814   70.4198 -200.2262   71.9688 -199.8930   70.6815 -198.6553   69.0301 -195.3838   68.3742 -195.7989   68.5545 -769.5452  -11.5355
  3.490 -189.4465   56.7422 -188.0749   57.7077 -188.6381   56.8589 -187.1342   55.3831 -184.5993   55.1294 -185.0612   55.2074 *********  -14.4179
  3.500 -179.9756   48.4507 -179.5440   49.2505 -179.3113   48.4357 -177.9283   46.9085 -175.9169   46.8813 -176.3148   46.8761 *********  -14.9887
  3.510 -173.2010   43.3524 -172.6776   43.8501 -172.5036   43.1925 -170.7744   41.3993 -169.0235   41.5480 -169.4204   41.4090 *********  -15.7631
  3.520 -170.3481   37.9026 -169.6433   38.4615 -169.3947   37.8058 -166.7231   36.0564 -165.2173   36.5327 -165.4748   36.2031 *********  -16.6522
  3.530 -165.8904   28.0690 -165.3950   28.8839 -164.9640   28.4200 -161.6349   27.8259 -160.6808   28.5046 -160.6647   28.2206 *********  -17.4531
  3.540 -156.6560   21.1125 -156.4674   21.8366 -156.0877   21.6017 -153.2366   21.9775 -152.6734   22.4833 -152.6088   22.3614 *********  -18.0011
  3.550 -148.2196   17.9745 -148.1612   18.5371 -147.8723   18.3957 -145.6011   19.0759 -145.1950   19.4225 -145.1584   19.3677 -785.2696  -18.2897
  3.560 -141.3605   16.1795 -141.3553   16.6175 -141.1276   16.5173 -139.2492   17.2567 -138.9269   17.5068 -138.9116   17.4761 -338.1809  -18.4140
  3.570 -135.5544   14.8651 -135.5737   15.2116 -135.3866   15.1349 -133.7693   15.8665 -133.5054   16.0548 -133.5022   16.0340 -130.7390  -18.4620
  3.580 -130.4422   13.7876 -130.4738   14.0653 -130.3153   14.0042 -128.8818   14.7115 -128.6633   14.8566 -128.6667   14.8406  -48.6584  -18.4799
  3.590 -125.8235   12.8636 -125.8617   13.0882 -125.7242   13.0382 -124.4277   13.7187 -124.2461   13.8317 -124.2530   13.8184  -17.4646  -18.4863
  3.600 -121.5802   12.0555 -121.6220   12.2381 -121.5006   12.1965 -120.3111   12.8514 -120.1600   12.9396 -120.1686   12.9280   -5.8599  -18.4885
  3.610 -117.6368   11.3413 -117.6806   11.4902 -117.5719   11.4551 -116.4689   12.0866 -116.3433   12.1551 -116.3527   12.1447   -1.8075  -18.4891
  3.620 -113.9414   10.7059 -113.9863   10.8274 -113.8877   10.7974 -112.8567   11.4077 -112.7527   11.4604 -112.7622   11.4509   -0.5205  -18.4893
  3.630 -110.4561   10.1382 -110.5015   10.2371 -110.4113   10.2112 -109.4415   10.8022 -109.3556   10.8421 -109.3650   10.8333   -0.1575  -18.4894
  3.640 -107.1520    9.6292 -107.1977    9.7093 -107.1143    9.6867 -106.1975   10.2600 -106.1269   10.2896 -106.1359   10.2816   -0.0773  -18.4894
  3.650 -104.0061    9.1717 -104.0520    9.2362 -103.9743    9.2162 -103.1039    9.7733 -103.0463    9.7946 -103.0548    9.7872   -0.0823  -18.4895
  3.660 -100.9999    8.7599 -101.0458    8.8114 -100.9730    8.7935 -100.1437    9.3353 -100.0972    9.3502 -100.1050    9.3435   -0.1214  -18.4895
  3.670  -98.1177    8.3890  -98.1638    8.4296  -98.0950    8.4134  -97.3026    8.9409  -97.2654    8.9510  -97.2726    8.9448   -0.1880  -18.4896
  3.680  -95.3464    8.0549  -95.3927    8.0865  -95.3274    8.0718  -94.5682    8.5856  -94.5388    8.5923  -94.5453    8.5867   -0.2896  -18.4897
  3.690  -92.6747    7.7546  -92.7212    7.7787  -92.6588    7.7651  -91.9299    8.2660  -91.9069    8.2706  -91.9128    8.2656   -0.4408  -18.4898
  3.700  -90.0924    7.4853  -90.1394    7.5033  -90.0795    7.4906  -89.3782    7.9790  -89.3605    7.9828  -89.3657    7.9783   -0.6627  -18.4901
  3.710  -87.5908    7.2449  -87.6383    7.2581  -87.5806    7.2461  -86.9047    7.7225  -86.8912    7.7266  -86.8958    7.7226   -0.9837  -18.4904
  3.720  -85.1619    7.0319  -85.2100    7.0414  -85.1543    7.0299  -84.5018    7.4945  -84.4916    7.5001  -84.4956    7.4967   -1.4416  -18.4910
  3.730  -82.7984    6.8451  -82.8474    6.8519  -82.7933    6.8407  -82.1625    7.2938  -82.1547    7.3020  -82.1581    7.2991   -2.0860  -18.4917
  3.740  -80.4939    6.6837  -80.5438    6.6887  -80.4911    6.6777  -79.8805    7.1195  -79.8744    7.1314  -79.8773    7.1290   -2.9803  -18.4928
  3.750  -78.2420    6.5473  -78.2931    6.5514  -78.2417    6.5405  -77.6499    6.9711  -77.6447    6.9878  -77.6471    6.9858   -4.2040  -18.4944
  3.760  -76.0371    6.4360  -76.0895    6.4400  -76.0393    6.4291  -75.4652    6.8484  -75.4602    6.8711  -75.4621    6.8697   -5.8551  -18.4965
  3.770  -73.8738    6.3501  -73.9278    6.3549  -73.8785    6.3438  -73.3210    6.7520  -73.3157    6.7818  -73.3171    6.7808   -8.0515  -18.4995
  3.780  -71.7470    6.2906  -71.8027    6.2970  -71.7543    6.2855  -71.2124    6.6826  -71.2062    6.7207  -71.2072    6.7201  -10.9317  -18.5035
  3.790  -69.6517    6.2588  -69.7095    6.2676  -69.6618    6.2557  -69.1347    6.6414  -69.1270    6.6891  -69.1276    6.6890  -14.6542  -18.5089
  3.800  -67.5832    6.2567  -67.6434    6.2686  -67.5964    6.2561  -67.0833    6.6304  -67.0736    6.6891  -67.0738    6.6894  -19.3956  -18.5160
  3.810  -65.5372    6.2867  -65.6000    6.3026  -65.5536    6.2895  -65.0538    6.6521  -65.0418    6.7232  -65.0416    6.7240  -25.3460  -18.5253
  3.820  -63.5092    6.3522  -63.5752    6.3730  -63.5293    6.3589  -63.0421    6.7096  -63.0273    6.7948  -63.0268    6.7960  -32.7024  -18.5374
  3.830  -61.4954    6.4574  -61.5649    6.4838  -61.5194    6.4688  -61.0445    6.8072  -61.0265    6.9082  -61.0256    6.9097  -41.6596  -18.5527
  3.840  -59.4921    6.6074  -59.5656    6.6404  -59.5206    6.6242  -59.0573    6.9500  -59.0358    7.0686  -59.0347    7.0704  -52.3978  -18.5719
  3.850  -57.4962    6.8086  -57.5743    6.8492  -57.5297    6.8315  -57.0776    7.1443  -57.0525    7.2826  -57.0512    7.2847  -65.0691  -18.5958
  3.860  -55.5053    7.0689  -55.5887    7.1180  -55.5445    7.0988  -55.1032    7.3979  -55.0745    7.5582  -55.0730    7.5606  -79.7810  -18.6252
  3.870  -53.5182    7.3978  -53.6077    7.4566  -53.5638    7.4354  -53.1330    7.7203  -53.1009    7.9052  -53.0992    7.9077  -96.5798  -18.6606
  3.880  -51.5351    7.8069  -51.6317    7.8764  -51.5881    7.8530  -51.1677    8.1228  -51.1324    8.3351  -51.1305    8.3378 -115.4344  -18.7031
  3.890  -49.5589    8.3096  -49.6637    8.3911  -49.6204    8.3652  -49.2101    8.6191  -49.1724    8.8618  -49.1703    8.8646 -136.2215  -18.7531
  3.900  -47.5957    8.9220  -47.7101    9.0167  -47.6671    8.9878  -47.2668    9.2247  -47.2277    9.5012  -47.2255    9.5039 -158.7147  -18.8115
  3.910  -45.6566    9.6620  -45.7821    9.7710  -45.7395    9.7386  -45.3492    9.9573  -45.3103   10.2713  -45.3079   10.2738 -182.5785  -18.8785
  3.920  -43.7594   10.5487  -43.8980   10.6734  -43.8557   10.6369  -43.4753   10.8358  -43.4389   11.1910  -43.4364   11.1932 -207.3685  -18.9548
  3.930  -41.9311   11.6011  -42.0850   11.7427  -42.0429   11.7012  -41.6725   11.8786  -41.6418   12.2788  -41.6389   12.2804 -232.5391  -19.0402
  3.940  -40.2100   12.8348  -40.3817   12.9943  -40.3398   12.9469  -39.9792   13.1004  -39.9584   13.5492  -39.9551   13.5502 -257.4598  -19.1348
  3.950  -38.6476   14.2568  -38.8402   14.4353  -38.7982   14.3804  -38.4471   14.5075  -38.4416   15.0079  -38.4376   15.0081 -281.4381  -19.2383
  3.960  -37.3088   15.8581  -37.5255   16.0562  -37.4830   15.9923  -37.1408   16.0897  -37.1569   16.6435  -37.1519   16.6427 -303.7503  -19.3499
  3.970  -36.2670   17.6039  -36.5118   17.8220  -36.4675   17.7468  -36.1331   17.8112  -36.1778   18.4184  -36.1714   18.4164 -323.6769  -19.4688
  3.980  -35.5940   19.4244  -35.8709   19.6624  -35.8228   19.5735  -35.4944   19.6010  -35.5746   20.2593  -35.5663   20.2564 -340.5416  -19.5940
  3.990  -35.3403   21.2104  -35.6539   21.4676  -35.5988   21.3627  -35.2739   21.3495  -35.3950   22.0544  -35.3844   22.0508 -353.7506  -19.7240
  4.000  -35.5124   22.8213  -35.8675   23.0963  -35.8007   22.9737  -35.4759   22.9165  -35.6409   23.6615  -35.6275   23.6576 -362.8299  -19.8573
  4.010  -36.0528   24.1088  -36.4542   24.3991  -36.3698   24.2590  -36.0417   24.1549  -36.2497   24.9333  -36.2333   24.9297 -367.4588  -19.9924
  4.020  -36.8381   24.9534  -37.2902   25.2555  -37.1820   25.1002  -36.8473   24.9468  -37.0937   25.7534  -37.0744   25.7507 -367.4975  -20.1274
  4.030  -37.7007   25.2975  -38.2071   25.6073  -38.0697   25.4415  -37.7252   25.2364  -38.0030   26.0695  -37.9809   26.0682 -363.0088  -20.2608
  4.040  -38.4676   25.1599  -39.0307   25.4731  -38.8610   25.3030  -38.5040   25.0435  -38.8050   25.9054  -38.7804   25.9059 -354.2727  -20.3910
  4.050  -38.9988   24.6232  -39.6201   24.9358  -39.4172   24.7682  -39.0449   24.4506  -39.3619   25.3478  -39.3352   25.3504 -341.7970  -20.5166
  4.060  -39.2081   23.8042  -39.8887   24.1133  -39.6538   23.9541  -39.2632   23.5741  -39.5909   24.5163  -39.5624   24.5209 -326.3246  -20.6365
  4.070  -39.0631   22.8236  -39.8046   23.1273  -39.5404   22.9811  -39.1275   22.5334  -39.4630   23.5324  -39.4329   23.5391 -308.8428  -20.7500
  4.080  -38.5721   21.7852  -39.3771   22.0819  -39.0865   21.9519  -38.6461   21.4304  -38.9894   22.4999  -38.9580   22.5086 -290.6041  -20.8568
  4.090  -37.7664   20.7668  -38.6391   21.0552  -38.3253   20.9429  -37.8506   20.3415  -38.2044   21.4959  -38.1716   21.5067 -273.1771  -20.9572
  4.100  -36.6864   19.8217  -37.6329   20.0992  -37.2981   20.0055  -36.7807   19.3176  -37.1502   20.5724  -37.1162   20.5853 -258.5518  -21.0522
  4.110  -35.3721   18.9827  -36.3998   19.2445  -36.0460   19.1696  -35.4751   18.3894  -35.8688   19.7607  -35.8337   19.7757 -249.3062  -21.1438
  4.120  -33.8582   18.2685  -34.9757   18.5064  -34.6040   18.4502  -33.9666   17.5733  -34.3964   19.0771  -34.3602   19.0944 -248.7836  -21.2353
  4.130  -32.1728   17.6889  -33.3883   17.8894  -32.9994   17.8516  -32.2800   16.8762  -32.7620   18.5283  -32.7250   18.5478 -261.1109  -21.3312
  4.140  -30.3377   17.2479  -31.6565   17.3907  -31.2504   17.3710  -30.4317   16.3000  -30.9871   18.1139  -30.9496   18.1358 -290.8198  -21.4381
  4.150  -28.3705   16.9464  -29.7891   17.0024  -29.3655   17.0004  -28.4301   15.8443  -29.0863   17.8287  -29.0491   17.8530 -342.1028  -21.5638
  4.160  -26.2861   16.7798  -27.7834   16.7129  -27.3415   16.7280  -26.2764   15.5084  -27.0666   17.6615  -27.0307   17.6877 -418.7976  -21.7177
  4.170  -24.0980   16.7325  -25.6201   16.5099  -25.1584   16.5409  -23.9650   15.2928  -24.9249   17.5927  -24.8917   17.6193 -527.4846  -21.9116
  4.180  -21.8080   16.7637  -23.2582   16.3872  -22.7737   16.4322  -21.4834   15.1999  -22.6364   17.5896  -22.6066   17.6132 -682.9617  -22.1626
  4.190  -19.3662   16.7995  -20.6311   16.3606  -20.1181   16.4171  -18.8118   15.2354  -20.1253   17.6126  -20.0971   17.6273 -902.8568  -22.4944
  4.200  -16.6054   16.7971  -17.6589   16.4904  -17.1072   16.5568  -15.9223   15.4096  -17.2302   17.6739  -17.1952   17.6751 *********  -22.9259
  4.210  -13.3100   16.9008  -14.2827   16.8896  -13.6769   16.9682  -12.7775   15.7397  -13.7745   17.9490  -13.7213   17.9403 *********  -23.4474
  4.220   -9.4548   17.3800  -10.4925   17.6963   -9.8146   17.7977   -9.3304   16.2515   -9.7500   18.7174   -9.6728   18.7093 *********  -24.0107
  4.230   -5.1521   18.3663   -6.3277   19.0413   -5.5622   19.1832   -5.5208   16.9813   -5.2874   20.1567   -5.1879   20.1600 *********  -24.5644
  4.240   -0.4282   19.8781   -1.8419   21.0066   -0.9748   21.2101   -1.2700   17.9802   -0.4777   22.3267   -0.3619   22.3467 *********  -25.1048
  4.250    4.8014   21.9697    2.9679   23.6642    3.9522   23.9561    3.5260   19.3234    4.6933   25.2960    4.8211   25.3339 *********  -25.6647
  4.260   10.6789   24.7885    8.1489   27.1507    9.2679   27.5668    9.0047   21.1217   10.2963   29.2322   10.4345   29.2885 *********  -26.2277
  4.270   17.3797   28.6018   13.7517   31.7035   15.0249   32.2946   15.3504   23.5434   16.4052   34.4417   16.5538   34.5181 *********  -26.7071
  4.280   25.1020   33.8491   19.7864   37.6925   21.2332   38.5338   22.8132   26.8511   23.0451   41.4175   23.2049   41.5176 -923.7067  -27.0466
  4.290   34.0382   41.2464   26.1558   45.6563   27.7876   46.8622   31.7351   31.4700   30.1030   50.9147   30.2742   51.0447 -627.4862  -27.2772
  4.300   44.2761   51.9770   32.5343   56.3347   34.3339   58.0806   42.5825   38.1200   37.1351   64.0558   37.3163   64.2250 -507.4881  -27.4637
  4.310   55.4852   68.0037   38.1581   70.6448   40.0304   73.1947   55.9665   48.0868   42.9393   82.4125   43.1250   82.6344 -517.7465  -27.6539
  4.320   66.0219   92.4212   41.5448   89.4811   43.2052   93.1999   72.5634   63.8046   44.6587  107.8068   44.8352  108.0993 -610.9294  -27.8784
  4.330   70.7617  129.0490   40.3734  113.2385   41.1334  118.5097   92.5318   90.1536   36.2718  140.8833   36.4082  141.2656 -775.7413  -28.1635
  4.340   58.2079  178.2649   31.8797  141.6168   30.3584  148.4438  112.6173  137.0967    8.1985  176.1405    8.2337  176.6188 *********  -28.5348
  4.350   14.8608  227.8279   11.6143  175.1231    5.8181  182.0053  113.7243  221.1252  -43.2932  194.9348  -43.4516  195.4537 *********  -29.0046
  4.360  -62.2282  254.0935  -35.9269  208.6635  -46.1730  211.0796   32.7335  331.5696  -97.5854  179.8403  -97.9585  180.2202 *********  -29.5506
  4.370 -150.7733  221.2887 -111.7651  199.3463 -120.1480  194.6917 -142.8763  333.3452 -129.3914  143.6704 -129.7640  143.8026 *********  -30.1166
  4.380 -185.8094  147.8717 -151.4648  144.6204 -154.4295  138.5493 -228.6146  214.1481 -138.9914  108.0798 -139.2378  108.1285 *********  -30.6511
  4.390 -178.4597   93.6470 -153.0068   98.9730 -153.2139   94.5619 -221.8367  122.2558 -136.9665   80.8178 -137.1487   80.8715 *********  -31.1536
  4.400 -161.6763   62.2719 -143.5688   70.4758 -142.9166   67.6061 -195.2871   73.3430 -130.4908   61.4117 -130.6501   61.4724 *********  -31.6699
  4.410 -145.7596   43.9146 -132.8484   52.5644 -132.0321   50.6981 -170.8328   47.4276 -122.8670   47.7343 -123.0161   47.7948 *********  -32.2167
  4.420 -132.4249   32.5475 -123.0649   40.7207 -122.3001   39.4752 -151.3559   32.7620 -115.4080   37.9742 -115.5501   38.0308 *********  -32.7195
  4.430 -121.4924   25.1090 -114.5642   32.5162 -113.9051   31.6597 -136.1202   23.8738 -108.5669   30.8708 -108.7027   30.9222 -979.6708  -33.0795
  4.440 -112.4907   20.0088 -107.2529   26.6144 -106.7018   26.0078 -124.0658   18.1612 -102.4479   25.5892 -102.5777   25.6358 -549.1044  -33.2813
  4.450 -104.9920   16.3744 -100.9525   22.2365 -100.4962   21.7953 -114.3525   14.3076  -97.0214   21.5801  -97.1455   21.6223 -268.9082  -33.3801
  4.460  -98.6616   13.7003  -95.4891   18.9048  -95.1120   18.5761 -106.3767   11.6025  -92.2134   18.4777  -92.3323   18.5162 -134.5575  -33.4295
  4.470  -93.2477   11.6791  -90.7148   16.3138  -90.4024   16.0637  -99.7125    9.6398  -87.9415   16.0344  -88.0556   16.0700  -73.2550  -33.4565
  4.480  -88.5613   10.1163  -86.5091   14.2610  -86.2494   14.0669  -94.0564    8.1758  -84.1286   14.0796  -84.2383   14.1127  -41.4649  -33.4717
  4.490  -84.4600    8.8840  -82.7752   12.6080  -82.5583   12.4547  -89.1891    7.0577  -80.7073   12.4932  -80.8130   12.5243  -23.2413  -33.4802
  4.500  -80.8351    7.8958  -79.4353   11.2579  -79.2534   11.1347  -84.9492    6.1864  -77.6202   11.1891  -77.7222   11.2187  -12.5932  -33.4849
  4.510  -77.6025    7.0913  -76.4272   10.1411  -76.2738   10.0407  -81.2156    5.4953  -74.8191   10.1047  -74.9179   10.1330   -6.5159  -33.4873
  4.520  -74.6966    6.4280  -73.7003    9.2070  -73.5703    9.1238  -77.8964    4.9387  -72.2639    9.1936  -72.3599    9.2208   -3.1971  -33.4884
  4.530  -72.0654    5.8746  -71.2135    8.4178  -71.1029    8.3479  -74.9202    4.4844  -69.9212    8.4208  -70.0145    8.4473   -1.4821  -33.4890
  4.540  -69.6674    5.4081  -68.9332    7.7449  -68.8387    7.6854  -72.2312    4.1091  -67.7629    7.7597  -67.8539    7.7856   -0.6480  -33.4892
  4.550  -67.4689    5.0114  -66.8317    7.1665  -66.7505    7.1152  -69.7851    3.7957  -65.7655    7.1898  -65.8544    7.2153   -0.2670  -33.4893
  4.560  -65.4424    4.6710  -64.8858    6.6658  -64.8157    6.6208  -67.5459    3.5316  -63.9093    6.6950  -63.9963    6.7203   -0.1036  -33.4894
  4.570  -63.5652    4.3770  -63.0762    6.2293  -63.0153    6.1894  -65.4849    3.3070  -62.1774    6.2628  -62.2628    6.2879   -0.0379  -33.4894
  4.580  -61.8185    4.1212  -61.3865    5.8465  -61.3335    5.8107  -63.5780    3.1147  -60.5555    5.8829  -60.6395    5.9079   -0.0130  -33.4894
  4.590  -60.1865    3.8973  -59.8031    5.5089  -59.7565    5.4764  -61.8055    2.9488  -59.0316    5.5472  -59.1142    5.5723   -0.0042  -33.4894
  4.600  -58.6558    3.7004  -58.3140    5.2097  -58.2728    5.1799  -60.1510    2.8049  -57.5950    5.2493  -57.6765    5.2745   -0.0013  -33.4894
  4.610  -57.2152    3.5263  -56.9092    4.9434  -56.8725    4.9156  -58.6006    2.6793  -56.2366    4.9836  -56.3172    5.0090   -0.0004  -33.4894
  4.620  -55.8548    3.3716  -55.5799    4.7053  -55.5469    4.6792  -57.1424    2.5692  -54.9487    4.7457  -55.0284    4.7714   -0.0001  -33.4894
  4.630  -54.5663    3.2338  -54.3185    4.4917  -54.2886    4.4669  -55.7664    2.4724  -53.7244    4.5319  -53.8034    4.5580   -0.0000  -33.4894
  4.640  -53.3425    3.1106  -53.1185    4.2993  -53.0911    4.2756  -54.4639    2.3868  -52.5575    4.3392  -52.6359    4.3656   -0.0000  -33.4894
  4.650  -52.1771    3.0000  -51.9741    4.1256  -51.9486    4.1027  -53.2275    2.3110  -51.4430    4.1649  -51.5209    4.1918   -0.0000  -33.4894
  4.660  -51.0646    2.9006  -50.8802    3.9683  -50.8562    3.9461  -52.0506    2.2437  -50.3760    4.0069  -50.4535    4.0343   -0.0000  -33.4894
  4.670  -50.0001    2.8110  -49.8322    3.8255  -49.8094    3.8038  -50.9276    2.1839  -49.3524    3.8633  -49.4297    3.8913   -0.0000  -33.4894
  4.680  -48.9793    2.7301  -48.8262    3.6957  -48.8042    3.6742  -49.8535    2.1306  -48.3685    3.7326  -48.4456    3.7612   -0.0000  -33.4894
  4.690  -47.9985    2.6570  -47.8587    3.5774  -47.8372    3.5561  -48.8239    2.0831  -47.4211    3.6134  -47.4981    3.6426   -0.0000  -33.4894
  4.700  -47.0543    2.5910  -46.9264    3.4694  -46.9052    3.4483  -47.8349    2.0408  -46.5071    3.5044  -46.5842    3.5344   -0.0000  -33.4894
  4.710  -46.1436    2.5312  -46.0266    3.3708  -46.0054    3.3497  -46.8830    2.0032  -45.6239    3.4048  -45.7012    3.4355   -0.0000  -33.4894
  4.720  -45.2636    2.4772  -45.1566    3.2807  -45.1351    3.2595  -45.9651    1.9699  -44.7692    3.3137  -44.8466    3.3452   -0.0000  -33.4894
  4.730  -44.4121    2.4284  -44.3141    3.1983  -44.2922    3.1769  -45.0784    1.9404  -43.9406    3.2302  -44.0184    3.2626   -0.0000  -33.4894
  4.740  -43.5867    2.3844  -43.4971    3.1229  -43.4745    3.1014  -44.2205    1.9144  -43.1363    3.1538  -43.2145    3.1870   -0.0000  -33.4894
  4.750  -42.7855    2.3449  -42.7035    3.0540  -42.6801    3.0322  -43.3890    1.8917  -42.3543    3.0839  -42.4330    3.1180   -0.0000  -33.4894
  4.760  -42.0065    2.3094  -41.9316    2.9911  -41.9073    2.9690  -42.5819    1.8721  -41.5931    3.0199  -41.6724    3.0550   -0.0000  -33.4894
  4.770  -41.2482    2.2778  -41.1799    2.9337  -41.1544    2.9113  -41.7973    1.8553  -40.8512    2.9615  -40.9311    2.9976   -0.0000  -33.4894
  4.780  -40.5090    2.2498  -40.4468    2.8815  -40.4200    2.8587  -41.0335    1.8412  -40.1270    2.9082  -40.2077    2.9455   -0.0000  -33.4894
  4.790  -39.7874    2.2252  -39.7310    2.8341  -39.7028    2.8109  -40.2889    1.8296  -39.4194    2.8598  -39.5010    2.8982   -0.0000  -33.4894
  4.800  -39.0821    2.2038  -39.0313    2.7913  -39.0014    2.7675  -39.5621    1.8205  -38.7270    2.8159  -38.8096    2.8554   -0.0000  -33.4894
  4.810  -38.3920    2.1855  -38.3463    2.7527  -38.3147    2.7285  -38.8518    1.8137  -38.0488    2.7762  -38.1325    2.8171   -0.0000  -33.4894
  4.820  -37.7160    2.1701  -37.6751    2.7182  -37.6416    2.6934  -38.1566    1.8092  -37.3838    2.7407  -37.4686    2.7828   -0.0000  -33.4894
  4.830  -37.0528    2.1576  -37.0166    2.6876  -36.9811    2.6623  -37.4754    1.8069  -36.7308    2.7090  -36.8169    2.7526   -0.0000  -33.4894
  4.840  -36.4016    2.1480  -36.3699    2.6607  -36.3321    2.6348  -36.8072    1.8068  -36.0891    2.6811  -36.1765    2.7261   -0.0000  -33.4894
  4.850  -35.7614    2.1410  -35.7340    2.6375  -35.6939    2.6109  -36.1508    1.8088  -35.4577    2.6568  -35.5466    2.7033   -0.0000  -33.4894
  4.860  -35.1313    2.1367  -35.1081    2.6177  -35.0655    2.5905  -35.5055    1.8130  -34.8357    2.6359  -34.9263    2.6840   -0.0001  -33.4894
  4.870  -34.5105    2.1351  -34.4914    2.6014  -34.4461    2.5734  -34.8701    1.8193  -34.2224    2.6185  -34.3147    2.6682   -0.0001  -33.4894
  4.880  -33.8981    2.1362  -33.8830    2.5884  -33.8349    2.5597  -34.2440    1.8278  -33.6170    2.6044  -33.7112    2.6559   -0.0003  -33.4894
  4.890  -33.2935    2.1399  -33.2822    2.5787  -33.2311    2.5492  -33.6262    1.8385  -33.0189    2.5935  -33.1150    2.6469   -0.0005  -33.4894
  4.900  -32.6958    2.1463  -32.6884    2.5723  -32.6341    2.5420  -33.0160    1.8515  -32.4271    2.5860  -32.5255    2.6413   -0.0011  -33.4894
  4.910  -32.1044    2.1555  -32.1008    2.5692  -32.0432    2.5381  -32.4126    1.8667  -31.8412    2.5817  -31.9418    2.6390   -0.0021  -33.4894
  4.920  -31.5186    2.1674  -31.5187    2.5695  -31.4575    2.5374  -31.8152    1.8843  -31.2603    2.5806  -31.3635    2.6401   -0.0041  -33.4894
  4.930  -30.9376    2.1822  -30.9415    2.5730  -30.8765    2.5401  -31.2232    1.9044  -30.6839    2.5829  -30.7897    2.6447   -0.0079  -33.4894
  4.940  -30.3608    2.2000  -30.3685    2.5800  -30.2996    2.5461  -30.6358    1.9270  -30.1113    2.5885  -30.2200    2.6527   -0.0149  -33.4894
  4.950  -29.7877    2.2209  -29.7990    2.5905  -29.7259    2.5555  -30.0524    1.9523  -29.5419    2.5976  -29.6536    2.6643   -0.0275  -33.4894
  4.960  -29.2174    2.2450  -29.2326    2.6045  -29.1550    2.5685  -29.4722    1.9804  -28.9750    2.6101  -29.0899    2.6795   -0.0500  -33.4894
  4.970  -28.6494    2.2724  -28.6684    2.6223  -28.5862    2.5851  -28.8947    2.0114  -28.4100    2.6263  -28.5284    2.6985   -0.0892  -33.4895
  4.980  -28.0831    2.3034  -28.1060    2.6439  -28.0187    2.6056  -28.3190    2.0456  -27.8462    2.6463  -27.9683    2.7215   -0.1566  -33.4895
  4.990  -27.5178    2.3381  -27.5446    2.6696  -27.4521    2.6300  -27.7446    2.0832  -27.2830    2.6701  -27.4092    2.7486   -0.2701  -33.4896
  5.000  -26.9528    2.3769  -26.9837    2.6995  -26.8855    2.6586  -27.1707    2.1243  -26.7198    2.6982  -26.8503    2.7800   -0.4577  -33.4898
  5.010  -26.3875    2.4199  -26.4225    2.7340  -26.3184    2.6917  -26.5967    2.1692  -26.1558    2.7305  -26.2910    2.8159   -0.7624  -33.4901
  5.020  -25.8212    2.4675  -25.8605    2.7732  -25.7500    2.7295  -26.0218    2.2182  -25.5905    2.7675  -25.7306    2.8568   -1.2478  -33.4905
  5.030  -25.2533    2.5200  -25.2970    2.8176  -25.1798    2.7724  -25.4454    2.2717  -25.0231    2.8094  -25.1685    2.9028   -2.0071  -33.4913
  5.040  -24.6831    2.5778  -24.7312    2.8675  -24.6068    2.8206  -24.8667    2.3300  -24.4529    2.8566  -24.6041    2.9543   -3.1728  -33.4924
  5.050  -24.1098    2.6415  -24.1626    2.9233  -24.0305    2.8747  -24.2849    2.3935  -23.8791    2.9094  -24.0365    3.0119   -4.9294  -33.4942
  5.060  -23.5327    2.7115  -23.5903    2.9855  -23.4501    2.9352  -23.6993    2.4627  -23.3010    2.9683  -23.4652    3.0759   -7.5271  -33.4970
  5.070  -22.9511    2.7884  -23.0137    3.0548  -22.8648    3.0025  -23.1090    2.5382  -22.7178    3.0339  -22.8892    3.1469  -11.2970  -33.5012
  5.080  -22.3642    2.8730  -22.4320    3.1318  -22.2737    3.0775  -22.5132    2.6205  -22.1286    3.1067  -22.3080    3.2257  -16.6652  -33.5073
  5.090  -21.7712    2.9660  -21.8444    3.2173  -21.6761    3.1607  -21.9111    2.7105  -21.5326    3.1875  -21.7206    3.3129  -24.1651  -33.5162
  5.100  -21.1714    3.0684  -21.2502    3.3122  -21.0712    3.2531  -21.3017    2.8088  -20.9289    3.2770  -21.1262    3.4093  -34.4442  -33.5288
  5.110  -20.5640    3.1813  -20.6486    3.4175  -20.4579    3.3558  -20.6842    2.9165  -20.3166    3.3763  -20.5241    3.5161  -48.2625  -33.5466
  5.120  -19.9481    3.3058  -20.0387    3.5344  -19.8356    3.4698  -20.0575    3.0347  -19.6946    3.4863  -19.9134    3.6344  -66.4804  -33.5710
  5.130  -19.3230    3.4434  -19.4199    3.6644  -19.2033    3.5967  -19.4207    3.1647  -19.0621    3.6083  -19.2931    3.7656  -90.0314  -33.6041
  5.140  -18.6881    3.5959  -18.7915    3.8091  -18.5602    3.7379  -18.7729    3.3078  -18.4180    3.7438  -18.6626    3.9111 -119.8786  -33.6481
  5.150  -18.0427    3.7651  -18.1527    3.9705  -17.9057    3.8953  -18.1130    3.4659  -17.7614    3.8945  -18.0210    4.0730 -156.9550  -33.7058
  5.160  -17.3864    3.9535  -17.5034    4.1509  -17.2390    4.0712  -17.4403    3.6409  -17.0913    4.0624  -17.3677    4.2534 -202.0886  -33.7801
  5.170  -16.7192    4.1635  -16.8432    4.3528  -16.5598    4.2680  -16.7541    3.8352  -16.4070    4.2498  -16.7022    4.4549 -255.9199  -33.8741
  5.180  -16.0412    4.3982  -16.1724    4.5794  -15.8682    4.4887  -16.0536    4.0514  -15.7079    4.4594  -16.0243    4.6804 -318.8210  -33.9913
  5.190  -15.3533    4.6611  -15.4918    4.8342  -15.1646    4.7364  -15.3389    4.2926  -14.9937    4.6942  -15.3343    4.9335 -390.8340  -34.1349
  5.200  -14.6574    4.9560  -14.8031    5.1210  -14.4502    5.0149  -14.6101    4.5624  -14.2645    4.9579  -14.6330    5.2181 -471.6502  -34.3082
  5.210  -13.9563    5.2868  -14.1094    5.4441  -13.7275    5.3280  -13.8684    4.8645  -13.5214    5.2541  -13.9224    5.5387 -560.6582  -34.5143
  5.220  -13.2548    5.6575  -13.4150    5.8078  -13.0001    5.6792  -13.1157    5.2029  -12.7661    5.5869  -13.2056    5.9001 -657.0810  -34.7558
  5.230  -12.5594    6.0711  -12.7270    6.2155  -12.2737    6.0716  -12.3553    5.5814  -12.0016    5.9602  -12.4877    6.3070 -760.2040  -35.0351
  5.240  -11.8793    6.5290  -12.0548    6.6695  -11.5559    6.5063  -11.5921    6.0030  -11.2326    6.3770  -11.7763    6.7636 -869.6438  -35.3547
  5.250  -11.2264    7.0293  -11.4109    7.1685  -10.8562    6.9814  -10.8323    6.4690  -10.4648    6.8389  -11.0816    7.2724 -985.5330  -35.7169
  5.260  -10.6138    7.5646  -10.8097    7.7059  -10.1849    7.4895  -10.0829    6.9779   -9.7046    7.3446  -10.4166    7.8327 *********  -36.1242
  5.270  -10.0546    8.1197  -10.2662    8.2673   -9.5499    8.0162   -9.3503    7.5247   -8.9574    7.8894   -9.7969    8.4387 *********  -36.5794
  5.280   -9.5570    8.6697   -9.7912    8.8284   -8.9519    8.5397   -8.6374    8.1004   -8.2249    8.4656   -9.2390    9.0777 *********  -37.0849
  5.290   -9.1190    9.1811   -9.3866    9.3550   -8.3778    9.0342   -7.9411    8.6954   -7.5020    9.0653   -8.7589    9.7283 *********  -37.6417
  5.300   -8.7213    9.6147   -9.0386    9.8061   -7.7958    9.4803   -7.2529    9.3042   -6.7778    9.6880   -8.3709   10.3562 *********  -38.2481
  5.310   -8.3221    9.9328   -8.7121   10.1382   -7.1594    9.8802   -6.5653    9.9292   -6.0449   10.3453   -8.0815   10.9050 *********  -38.8977
  5.320   -7.8494   10.1112   -8.3407   10.3147   -6.4284   10.2707   -5.8826   10.5732   -5.3169   11.0542   -7.8634   11.2841 *********  -39.5792
  5.330   -7.1996   10.1693   -7.8179   10.3351   -5.6048   10.7090   -5.2141   11.2179   -4.6305   11.8029   -7.5974   11.3952 *********  -40.2757
  5.340   -6.2851   10.2115   -7.0350   10.2841   -4.7372   11.2147   -4.5392   11.8248   -3.9976   12.5274   -7.0622   11.2504 *********  -40.9670
  5.350   -5.1262   10.3794   -5.9755   10.3056   -3.8487   11.7382   -3.7988   12.3785   -3.3537   13.1632   -6.0927   11.0515 *********  -41.6321
  5.360   -3.8179   10.7234   -4.7115   10.4844   -2.8802   12.2335   -2.9295   12.9028   -2.5935   13.7143   -4.7227   11.0395 *********  -42.2525
  5.370   -2.4006   11.2172   -3.2971   10.8295   -1.7431   12.7275   -1.8806   13.4498   -1.6355   14.2491   -3.0916   11.3318 *********  -42.8149
  5.380   -0.8547   11.8559   -1.7428   11.3453   -0.3847   13.3016   -0.6239   14.0930   -0.4441   14.8628   -1.3123   11.9438 *********  -43.3123
  5.390    0.8408   12.6753   -0.0480   12.0559    1.2010   14.0458    0.8393   14.9111    0.9761   15.6486    0.5550   12.8618 *********  -43.7439
  5.400    2.6880   13.7266    1.7816   12.9956    2.9928   15.0357    2.4864   15.9747    2.5962   16.6847    2.4846   14.0787 *********  -44.1140
  5.410    4.6760   15.0621    3.7362   14.2011    4.9618   16.3329    4.2857   17.3435    4.3783   18.0349    4.4666   15.6043 -858.9564  -44.4297
  5.420    6.7893   16.7353    5.8059   15.7132    7.0810   17.9952    6.2037   19.0736    6.2833   19.7563    6.4946   17.4674 -734.1571  -44.6995
  5.430    9.0098   18.8081    7.9805   17.5822    9.3243   20.0877    8.2048   21.2257    8.2710   21.9097    8.5577   19.7155 -633.2392  -44.9322
  5.440   11.3126   21.3579   10.2460   19.8739   11.6600   22.6927   10.2458   23.8726   10.2934   24.5668   10.6329   22.4157 -555.1358  -45.1362
  5.450   13.6569   24.4834   12.5769   22.6745   14.0402   25.9154   12.2651   27.1034   12.2848   27.8148   12.6759   25.6540 -498.1579  -45.3193
  5.460   15.9725   28.3089   14.9260   26.0945   16.3845   29.8887   14.1698   31.0243   14.1475   31.7563   14.6106   29.5350 -460.4614  -45.4885
  5.470   18.1399   32.9843   17.2088   30.2722   18.5572   34.7731   15.8164   35.7548   15.7334   36.5042   16.3129   34.1779 -440.0731  -45.6502
  5.480   19.9619   38.6786   19.2805   35.3718   20.3349   40.7470   16.9870   41.4138   16.8223   42.1669   17.5898   39.7061 -434.7151  -45.8100
  5.490   21.1238   45.5572   20.9014   41.5733   21.3629   47.9785   17.3625   48.0909   17.0977   48.8180   18.1523   46.2239 -441.6312  -45.9723
  5.500   21.1476   53.7270   21.6908   49.0392   21.1064   56.5587   16.4972   55.7900   16.1301   56.4427   17.5871   53.7698 -457.5348  -46.1404
  5.510   19.3577   63.1263   21.0756   57.8384   18.8226   66.3727   13.8173   64.3351   13.3812   64.8550   15.3409   62.2310 -478.7105  -46.3163
  5.520   14.9133   73.3409   18.2673   67.7964   13.6183   76.8940    8.6829   73.2364    8.2631   73.5860   10.7543   71.2073 -501.2543  -46.5005
  5.530    7.0105   83.3803   12.3525   78.2621    4.7067   86.9588    0.5767   81.5578    0.2944   81.7755    3.2219   79.8479 -521.4030  -46.6921
  5.540   -4.6535   91.5941    2.6308   87.8871   -8.0635   94.7370  -10.5402   87.9204  -10.6093   88.1554   -7.4500   86.7892 -535.8945  -46.8891
  5.550  -19.2968   96.0493  -10.7706   94.7126  -23.6189   98.2379  -23.8403   90.8489  -23.7742   91.2940  -20.5800   90.4495 -542.2931  -47.0884
  5.560  -34.9050   95.4583  -26.3864   96.8922  -39.6485   96.3467  -37.6055   89.4715  -37.6321   90.1981  -34.4827   89.7708 -539.2215  -47.2865
  5.570  -48.9960   90.0094  -41.7211   93.7791  -53.5690   89.5940  -49.8528   84.0848  -50.1822   84.9571  -47.0767   84.9052 -526.4569  -47.4800
  5.580  -59.8055   81.2419  -54.4396   86.3706  -63.7633   79.8145  -59.2171   76.0023  -59.8868   76.7859  -56.8576   77.1331 -504.8708  -47.6655
  5.590  -66.8496   71.1021  -63.3975   76.6149  -70.0009   69.0603  -65.3479   66.8228  -66.2400   67.3478  -63.3791   68.0968 -476.2220  -47.8405
  5.600  -70.6175   61.1057  -68.7003   66.3529  -72.9731   58.7941  -68.6630   57.7923  -69.6157   58.0113  -67.0188   59.1033 -442.8394  -48.0033
  5.610  -71.9719   52.0862  -71.1234   56.7648  -73.6432   49.7387  -69.8817   49.6079  -70.7695   49.5595  -68.4894   50.8986 -407.2514  -48.1529
  5.620  -71.7364   44.3394  -71.5606   48.3809  -72.8591   42.0907  -69.6976   42.5275  -70.4498   42.2829  -68.4925   43.7745 -371.8253  -48.2896
  5.630  -70.5409   37.8561  -70.7538   41.3122  -71.2377   35.7732  -68.6493   36.5525  -69.2378   36.1829  -67.5800   37.7543 -338.4738  -48.4140
  5.640  -68.8149   32.4943  -69.2338   35.4632  -69.1849   30.6052  -67.1109   31.5685  -67.5330   31.1328  -66.1407   32.7367 -308.4702  -48.5273
  5.650  -66.8328   28.0753  -67.3519   30.6623  -66.9526   26.3890  -65.3257   27.4253  -65.5916   26.9694  -64.4331   28.5785 -282.3874  -48.6311
  5.660  -64.7620   24.4283  -65.3297   26.7268  -64.6916   22.9453  -63.4448   23.9759  -63.5715   23.5355  -62.6231   25.1340 -260.1535  -48.7267
  5.670  -62.7009   21.4055  -63.3017   23.4884  -62.4900   20.1231  -61.5579   21.0912  -61.5669   20.6942  -60.8139   22.2698 -241.1963  -48.8154
  5.680  -60.7044   18.8857  -61.3439   20.8003  -60.3979   17.7977  -59.7158   18.6645  -59.6325   18.3312  -59.0657   19.8686 -224.6381  -48.8979
  5.690  -58.8013   16.7713  -59.4914   18.5404  -58.4405   15.8660  -57.9446   16.6102  -57.7976   16.3522  -57.4069   17.8310 -209.5006  -48.9749
  5.700  -57.0043   14.9848  -57.7515   16.6125  -56.6251   14.2434  -56.2572   14.8615  -56.0746   14.6802  -55.8434   16.0776 -194.8844  -49.0465
  5.710  -55.3165   13.4649  -56.1161   14.9470  -54.9463   12.8623  -54.6585   13.3655  -54.4642   13.2535  -54.3682   14.5504 -180.1005  -49.1127
  5.720  -53.7359   12.1633  -54.5731   13.4965  -53.3916   11.6723  -53.1501   12.0801  -52.9605   12.0246  -52.9708   13.2100 -164.7406  -49.1732
  5.730  -52.2575   11.0413  -53.1129   12.2287  -51.9466   10.6366  -51.7309   10.9705  -51.5550   10.9575  -51.6427   12.0296 -148.6904  -49.2279
  5.740  -50.8748   10.0683  -51.7301   11.1193  -50.5983    9.7292  -50.3978   10.0079  -50.2390   10.0250  -50.3794   10.9893 -132.0932  -49.2764
  5.750  -49.5810    9.2198  -50.4214   10.1475  -49.3364    8.9304  -49.1466    9.1686  -49.0045    9.2060  -49.1786   10.0720 -115.2827  -49.3188
  5.760  -48.3693    8.4758  -49.1845    9.2950  -48.1526    8.2247  -47.9720    8.4327  -47.8449    8.4835  -48.0388    9.2622  -98.6996  -49.3551
  5.770  -47.2329    7.8202  -48.0165    8.5454  -47.0400    7.5991  -46.8685    7.7842  -46.7540    7.8438  -46.9581    8.5459  -82.8100  -49.3855
  5.780  -46.1656    7.2397  -46.9144    7.8841  -45.9926    7.0429  -45.8306    7.2098  -45.7265    7.2750  -45.9343    7.9106  -68.0362  -49.4105
  5.790  -45.1617    6.7235  -45.8743    7.2986  -45.0054    6.5467  -44.8532    6.6988  -44.7573    6.7676  -44.9647    7.3454  -54.7087  -49.4306
  5.800  -44.2158    6.2624  -44.8923    6.7782  -44.0736    6.1026  -43.9312    6.2420  -43.8419    6.3132  -44.0462    6.8406  -43.0393  -49.4464
  5.810  -43.3231    5.8491  -43.9645    6.3139  -43.1928    5.7039  -43.0602    5.8323  -42.9760    5.9050  -43.1756    6.3883  -33.1170  -49.4586
  5.820  -42.4792    5.4770  -43.0871    5.8980  -42.3590    5.3446  -42.2359    5.4632  -42.1559    5.5369  -42.3497    5.9816  -24.9190  -49.4678
  5.830  -41.6801    5.1410  -42.2562    5.5242  -41.5687    5.0200  -41.4547    5.1295  -41.3780    5.2040  -41.5655    5.6146  -18.3335  -49.4745
  5.840  -40.9223    4.8366  -41.4683    5.1869  -40.8184    4.7258  -40.7130    4.8270  -40.6391    4.9019  -40.8201    5.2824  -13.1873  -49.4793
  5.850  -40.2023    4.5599  -40.7203    4.8815  -40.1051    4.4582  -40.0079    4.5518  -39.9362    4.6270  -40.1106    4.9806   -9.2731  -49.4827
  5.860  -39.5174    4.3076  -40.0092    4.6041  -39.4261    4.2143  -39.3366    4.3007  -39.2666    4.3762  -39.4345    4.7058   -6.3744  -49.4851
  5.870  -38.8648    4.0770  -39.3321    4.3515  -38.7788    3.9913  -38.6964    4.0709  -38.6280    4.1466  -38.7895    4.4546   -4.2832  -49.4867
  5.880  -38.2421    3.8656  -38.6866    4.1206  -38.1608    3.7869  -38.0850    3.8602  -38.0179    3.9360  -38.1734    4.2246   -2.8133  -49.4877
  5.890  -37.6471    3.6714  -38.0704    3.9091  -37.5701    3.5991  -37.5005    3.6664  -37.4345    3.7424  -37.5841    4.0133   -1.8062  -49.4884
  5.900  -37.0779    3.4925  -37.4814    3.7148  -37.0048    3.4260  -36.9409    3.4878  -36.8759    3.5638  -37.0199    3.8188   -1.1335  -49.4888
  5.910  -36.5326    3.3273  -36.9176    3.5359  -36.4631    3.2663  -36.4044    3.3228  -36.3403    3.3989  -36.4789    3.6393   -0.6953  -49.4890
  5.920  -36.0097    3.1745  -36.3773    3.3707  -35.9433    3.1186  -35.8896    3.1701  -35.8262    3.2462  -35.9597    3.4733   -0.4169  -49.4892
  5.930  -35.5074    3.0328  -35.8590    3.2180  -35.4441    2.9816  -35.3949    3.0284  -35.3322    3.1045  -35.4609    3.3194   -0.2443  -49.4893
  5.940  -35.0247    2.9012  -35.3611    3.0764  -34.9641    2.8543  -34.9190    2.8968  -34.8570    2.9729  -34.9811    3.1766   -0.1399  -49.4893
  5.950  -34.5600    2.7788  -34.8824    2.9449  -34.5021    2.7359  -34.4608    2.7742  -34.3994    2.8502  -34.5191    3.0436   -0.0783  -49.4894
  5.960  -34.1124    2.6646  -34.4216    2.8225  -34.0569    2.6254  -34.0192    2.6599  -33.9583    2.7359  -34.0739    2.9197   -0.0429  -49.4894
  5.970  -33.6808    2.5580  -33.9775    2.7083  -33.6275    2.5223  -33.5931    2.5531  -33.5328    2.6290  -33.6444    2.8040   -0.0229  -49.4894
  5.980  -33.2641    2.4583  -33.5492    2.6018  -33.2129    2.4258  -33.1816    2.4531  -33.1218    2.5289  -33.2297    2.6957   -0.0120  -49.4894
  5.990  -32.8616    2.3648  -33.1357    2.5020  -32.8124    2.3354  -32.7839    2.3595  -32.7246    2.4352  -32.8289    2.5943   -0.0061  -49.4894
  6.000  -32.4724    2.2772  -32.7362    2.4086  -32.4250    2.2506  -32.3991    2.2715  -32.3403    2.3471  -32.4412    2.4992   -0.0031  -49.4894
  6.010  -32.0957    2.1948  -32.3498    2.3209  -32.0501    2.1709  -32.0265    2.1889  -31.9683    2.2644  -32.0659    2.4098   -0.0015  -49.4894
  6.020  -31.7308    2.1173  -31.9758    2.2385  -31.6868    2.0959  -31.6656    2.1112  -31.6078    2.1864  -31.7023    2.3257   -0.0007  -49.4894
  6.030  -31.3771    2.0443  -31.6134    2.1610  -31.3347    2.0252  -31.3155    2.0379  -31.2582    2.1130  -31.3498    2.2465   -0.0003  -49.4894
  6.040  -31.0340    1.9754  -31.2622    2.0879  -30.9931    1.9585  -30.9758    1.9687  -30.9190    2.0437  -31.0078    2.1717   -0.0002  -49.4894
  6.050  -30.7009    1.9103  -30.9214    2.0190  -30.6614    1.8955  -30.6460    1.9034  -30.5895    1.9782  -30.6757    2.1011   -0.0001  -49.4894
  6.060  -30.3774    1.8488  -30.5905    1.9538  -30.3392    1.8359  -30.3254    1.8416  -30.2695    1.9162  -30.3531    2.0343   -0.0000  -49.4894
  6.070  -30.0629    1.7905  -30.2691    1.8922  -30.0260    1.7794  -30.0137    1.7831  -29.9582    1.8574  -30.0394    1.9711   -0.0000  -49.4894
  6.080  -29.7570    1.7353  -29.9566    1.8338  -29.7213    1.7259  -29.7105    1.7277  -29.6554    1.8018  -29.7343    1.9112   -0.0000  -49.4894
  6.090  -29.4593    1.6830  -29.6526    1.7785  -29.4247    1.6752  -29.4152    1.6751  -29.3606    1.7489  -29.4373    1.8543   -0.0000  -49.4894
  6.100  -29.1693    1.6332  -29.3567    1.7260  -29.1358    1.6269  -29.1276    1.6251  -29.0734    1.6987  -29.1480    1.8003   -0.0000  -49.4894
  6.110  -28.8868    1.5860  -29.0686    1.6761  -28.8543    1.5811  -28.8472    1.5776  -28.7935    1.6509  -28.8660    1.7489   -0.0000  -49.4894
  6.120  -28.6113    1.5410  -28.7877    1.6287  -28.5799    1.5374  -28.5739    1.5324  -28.5205    1.6055  -28.5912    1.7001   -0.0000  -49.4894
  6.130  -28.3426    1.4981  -28.5139    1.5835  -28.3121    1.4958  -28.3071    1.4894  -28.2542    1.5621  -28.3230    1.6535   -0.0000  -49.4894
  6.140  -28.0804    1.4573  -28.2468    1.5405  -28.0508    1.4561  -28.0467    1.4483  -27.9942    1.5208  -28.0612    1.6091   -0.0000  -49.4894
  6.150  -27.8243    1.4183  -27.9861    1.4995  -27.7956    1.4183  -27.7924    1.4092  -27.7403    1.4813  -27.8056    1.5668   -0.0000  -49.4894
  6.160  -27.5742    1.3811  -27.7315    1.4603  -27.5463    1.3821  -27.5439    1.3718  -27.4923    1.4436  -27.5559    1.5263   -0.0000  -49.4894
  6.170  -27.3297    1.3455  -27.4828    1.4229  -27.3026    1.3476  -27.3010    1.3360  -27.2497    1.4076  -27.3118    1.4877   -0.0000  -49.4894
  6.180  -27.0906    1.3115  -27.2397    1.3872  -27.0643    1.3145  -27.0635    1.3019  -27.0126    1.3731  -27.0732    1.4507   -0.0000  -49.4894
  6.190  -26.8568    1.2790  -27.0020    1.3530  -26.8312    1.2828  -26.8310    1.2692  -26.7806    1.3401  -26.8397    1.4153   -0.0000  -49.4894
  6.200  -26.6280    1.2478  -26.7694    1.3202  -26.6031    1.2525  -26.6035    1.2378  -26.5535    1.3084  -26.6112    1.3814   -0.0000  -49.4894
  6.210  -26.4040    1.2179  -26.5418    1.2888  -26.3797    1.2234  -26.3808    1.2078  -26.3311    1.2781  -26.3875    1.3488   -0.0000  -49.4894
  6.220  -26.1846    1.1893  -26.3190    1.2587  -26.1610    1.1954  -26.1626    1.1790  -26.1133    1.2489  -26.1684    1.3176   -0.0000  -49.4894
  6.230  -25.9696    1.1617  -26.1008    1.2298  -25.9467    1.1686  -25.9488    1.1513  -25.8999    1.2210  -25.9538    1.2877   -0.0000  -49.4894
  6.240  -25.7590    1.1353  -25.8870    1.2021  -25.7366    1.1429  -25.7392    1.1248  -25.6907    1.1941  -25.7434    1.2589   -0.0000  -49.4894
  6.250  -25.5524    1.1099  -25.6774    1.1754  -25.5307    1.1181  -25.5337    1.0993  -25.4856    1.1682  -25.5371    1.2312   -0.0000  -49.4894
  6.260  -25.3499    1.0855  -25.4720    1.1498  -25.3287    1.0943  -25.3321    1.0747  -25.2844    1.1434  -25.3348    1.2046   -0.0000  -49.4894
  6.270  -25.1512    1.0620  -25.2705    1.1252  -25.1305    1.0713  -25.1343    1.0511  -25.0870    1.1194  -25.1363    1.1790   -0.0000  -49.4894
  6.280  -24.9561    1.0394  -25.0728    1.1014  -24.9360    1.0492  -24.9402    1.0284  -24.8932    1.0963  -24.9415    1.1544   -0.0000  -49.4894
  6.290  -24.7647    1.0176  -24.8788    1.0786  -24.7450    1.0279  -24.7496    1.0065  -24.7030    1.0741  -24.7503    1.1306   -0.0000  -49.4894
  6.300  -24.5767    0.9966  -24.6883    1.0565  -24.5575    1.0074  -24.5624    0.9854  -24.5162    1.0527  -24.5625    1.1077   -0.0000  -49.4894
  6.310  -24.3921    0.9763  -24.5012    1.0353  -24.3734    0.9876  -24.3785    0.9651  -24.3327    1.0320  -24.3780    1.0856   -0.0000  -49.4894
  6.320  -24.2106    0.9567  -24.3175    1.0148  -24.1924    0.9685  -24.1978    0.9454  -24.1523    1.0120  -24.1968    1.0643   -0.0000  -49.4894
  6.330  -24.0323    0.9379  -24.1370    0.9950  -24.0145    0.9500  -24.0202    0.9265  -23.9751    0.9927  -24.0187    1.0437   -0.0000  -49.4894
  6.340  -23.8571    0.9196  -23.9595    0.9759  -23.8397    0.9321  -23.8456    0.9082  -23.8009    0.9741  -23.8436    1.0238   -0.0000  -49.4894
  6.350  -23.6847    0.9020  -23.7851    0.9574  -23.6677    0.9149  -23.6739    0.8905  -23.6295    0.9560  -23.6714    1.0045   -0.0000  -49.4894
  6.360  -23.5152    0.8850  -23.6136    0.9396  -23.4986    0.8982  -23.5050    0.8734  -23.4609    0.9386  -23.5021    0.9859   -0.0000  -49.4894
  6.370  -23.3484    0.8685  -23.4449    0.9223  -23.3322    0.8820  -23.3388    0.8569  -23.2951    0.9217  -23.3355    0.9679   -0.0000  -49.4894
  6.380  -23.1844    0.8526  -23.2790    0.9056  -23.1685    0.8664  -23.1753    0.8409  -23.1319    0.9054  -23.1715    0.9505   -0.0000  -49.4894
  6.390  -23.0229    0.8371  -23.1157    0.8894  -23.0073    0.8512  -23.0143    0.8254  -22.9713    0.8895  -23.0102    0.9336   -0.0000  -49.4894
  6.400  -22.8639    0.8222  -22.9549    0.8738  -22.8487    0.8365  -22.8559    0.8104  -22.8131    0.8742  -22.8513    0.9173   -0.0000  -49.4894
  6.410  -22.7073    0.8077  -22.7967    0.8586  -22.6925    0.8223  -22.6998    0.7959  -22.6574    0.8593  -22.6949    0.9015   -0.0000  -49.4894
  6.420  -22.5531    0.7937  -22.6409    0.8439  -22.5386    0.8085  -22.5461    0.7818  -22.5040    0.8449  -22.5409    0.8861   -0.0000  -49.4894
  6.430  -22.4013    0.7801  -22.4874    0.8296  -22.3871    0.7951  -22.3947    0.7681  -22.3529    0.8309  -22.3891    0.8712   -0.0000  -49.4894
  6.440  -22.2516    0.7668  -22.3363    0.8158  -22.2378    0.7821  -22.2455    0.7549  -22.2041    0.8174  -22.2396    0.8567   -0.0000  -49.4894
  6.450  -22.1042    0.7540  -22.1873    0.8023  -22.0906    0.7695  -22.0984    0.7420  -22.0573    0.8042  -22.0923    0.8427   -0.0000  -49.4894
  6.460  -21.9589    0.7416  -22.0406    0.7893  -21.9456    0.7572  -21.9535    0.7295  -21.9127    0.7914  -21.9471    0.8291   -0.0000  -49.4894
  6.470  -21.8156    0.7295  -21.8959    0.7766  -21.8026    0.7453  -21.8106    0.7174  -21.7701    0.7789  -21.8040    0.8158   -0.0000  -49.4894
  6.480  -21.6744    0.7178  -21.7533    0.7643  -21.6616    0.7337  -21.6697    0.7057  -21.6296    0.7668  -21.6628    0.8030   -0.0000  -49.4894
  6.490  -21.5351    0.7063  -21.6127    0.7523  -21.5226    0.7224  -21.5308    0.6942  -21.4909    0.7550  -21.5236    0.7905   -0.0000  -49.4894
  6.500  -21.3977    0.6952  -21.4740    0.7407  -21.3854    0.7115  -21.3937    0.6831  -21.3542    0.7436  -21.3864    0.7783   -0.0000  -49.4894
  6.510  -21.2621    0.6845  -21.3373    0.7294  -21.2502    0.7008  -21.2585    0.6723  -21.2193    0.7325  -21.2509    0.7665   -0.0000  -49.4894
  6.520  -21.1284    0.6740  -21.2024    0.7184  -21.1167    0.6905  -21.1251    0.6618  -21.0861    0.7216  -21.1173    0.7550   -0.0000  -49.4894
  6.530  -20.9965    0.6637  -21.0692    0.7076  -20.9850    0.6804  -20.9934    0.6516  -20.9548    0.7111  -20.9855    0.7438   -0.0000  -49.4894
  6.540  -20.8663    0.6538  -20.9379    0.6972  -20.8550    0.6705  -20.8635    0.6416  -20.8251    0.7008  -20.8554    0.7328   -0.0000  -49.4894
  6.550  -20.7377    0.6441  -20.8082    0.6870  -20.7267    0.6609  -20.7352    0.6319  -20.6972    0.6908  -20.7269    0.7222   -0.0000  -49.4894
  6.560  -20.6108    0.6347  -20.6803    0.6771  -20.6000    0.6516  -20.6086    0.6225  -20.5708    0.6810  -20.6001    0.7119   -0.0000  -49.4894
  6.570  -20.4855    0.6255  -20.5540    0.6675  -20.4749    0.6425  -20.4836    0.6133  -20.4461    0.6715  -20.4749    0.7018   -0.0000  -49.4894
  6.580  -20.3618    0.6165  -20.4292    0.6581  -20.3514    0.6336  -20.3601    0.6043  -20.3229    0.6622  -20.3513    0.6919   -0.0000  -49.4894
  6.590  -20.2396    0.6078  -20.3061    0.6489  -20.2294    0.6249  -20.2381    0.5955  -20.2012    0.6532  -20.2292    0.6823   -0.0000  -49.4894
  6.600  -20.1189    0.5993  -20.1844    0.6400  -20.1089    0.6165  -20.1176    0.5870  -20.0810    0.6444  -20.1086    0.6730   -0.0000  -49.4894
  6.610  -19.9997    0.5910  -20.0642    0.6313  -19.9898    0.6082  -19.9986    0.5787  -19.9622    0.6358  -19.9895    0.6638   -0.0000  -49.4894
  6.620  -19.8819    0.5829  -19.9455    0.6227  -19.8722    0.6002  -19.8810    0.5706  -19.8449    0.6273  -19.8718    0.6549   -0.0000  -49.4894
  6.630  -19.7655    0.5750  -19.8282    0.6144  -19.7560    0.5923  -19.7648    0.5627  -19.7290    0.6191  -19.7554    0.6462   -0.0000  -49.4894
  6.640  -19.6505    0.5672  -19.7124    0.6063  -19.6411    0.5847  -19.6500    0.5550  -19.6144    0.6111  -19.6405    0.6377   -0.0000  -49.4894
  6.650  -19.5368    0.5597  -19.5978    0.5984  -19.5276    0.5772  -19.5365    0.5474  -19.5011    0.6033  -19.5269    0.6294   -0.0000  -49.4894
  6.660  -19.4244    0.5523  -19.4846    0.5906  -19.4154    0.5698  -19.4243    0.5401  -19.3892    0.5956  -19.4146    0.6213   -0.0000  -49.4894
  6.670  -19.3133    0.5451  -19.3727    0.5831  -19.3044    0.5627  -19.3133    0.5329  -19.2785    0.5881  -19.3036    0.6134   -0.0000  -49.4894
  6.680  -19.2034    0.5381  -19.2621    0.5757  -19.1948    0.5557  -19.2036    0.5258  -19.1691    0.5808  -19.1938    0.6056   -0.0000  -49.4894
  6.690  -19.0948    0.5312  -19.1528    0.5685  -19.0863    0.5488  -19.0952    0.5190  -19.0609    0.5737  -19.0853    0.5981   -0.0000  -49.4894
  6.700  -18.9874    0.5245  -19.0446    0.5614  -18.9790    0.5421  -18.9879    0.5123  -18.9539    0.5667  -18.9779    0.5907   -0.0000  -49.4894
  6.710  -18.8812    0.5179  -18.9377    0.5545  -18.8730    0.5356  -18.8819    0.5057  -18.8480    0.5598  -18.8718    0.5834   -0.0000  -49.4894
  6.720  -18.7761    0.5115  -18.8319    0.5477  -18.7680    0.5291  -18.7769    0.4993  -18.7433    0.5531  -18.7668    0.5763   -0.0000  -49.4894
  6.730  -18.6722    0.5052  -18.7273    0.5411  -18.6642    0.5229  -18.6731    0.4930  -18.6398    0.5466  -18.6629    0.5694   -0.0000  -49.4894
  6.740  -18.5693    0.4991  -18.6238    0.5346  -18.5615    0.5167  -18.5704    0.4869  -18.5373    0.5402  -18.5602    0.5626   -0.0000  -49.4894
  6.750  -18.4676    0.4931  -18.5214    0.5283  -18.4599    0.5107  -18.4688    0.4808  -18.4360    0.5339  -18.4585    0.5560   -0.0000  -49.4894
  6.760  -18.3670    0.4872  -18.4201    0.5221  -18.3594    0.5048  -18.3683    0.4750  -18.3356    0.5277  -18.3580    0.5495   -0.0000  -49.4894
  6.770  -18.2673    0.4814  -18.3199    0.5160  -18.2599    0.4990  -18.2688    0.4692  -18.2364    0.5217  -18.2584    0.5431   -0.0000  -49.4894
  6.780  -18.1688    0.4758  -18.2207    0.5101  -18.1615    0.4934  -18.1703    0.4636  -18.1381    0.5158  -18.1599    0.5369   -0.0000  -49.4894
  6.790  -18.0712    0.4702  -18.1226    0.5042  -18.0640    0.4878  -18.0729    0.4580  -18.0409    0.5100  -18.0624    0.5308   -0.0000  -49.4894
  6.800  -17.9746    0.4648  -18.0254    0.4985  -17.9676    0.4824  -17.9764    0.4526  -17.9447    0.5044  -17.9659    0.5248   -0.0000  -49.4894
  6.810  -17.8790    0.4595  -17.9293    0.4929  -17.8721    0.4771  -17.8809    0.4473  -17.8494    0.4988  -17.8704    0.5189   -0.0000  -49.4894
  6.820  -17.7844    0.4543  -17.8341    0.4874  -17.7775    0.4719  -17.7863    0.4421  -17.7551    0.4934  -17.7758    0.5132   -0.0000  -49.4894
  6.830  -17.6907    0.4492  -17.7398    0.4821  -17.6839    0.4667  -17.6927    0.4370  -17.6617    0.4880  -17.6822    0.5075   -0.0000  -49.4894
  6.840  -17.5979    0.4442  -17.6465    0.4768  -17.5913    0.4617  -17.6000    0.4321  -17.5692    0.4828  -17.5895    0.5020   -0.0000  -49.4894
  6.850  -17.5060    0.4393  -17.5541    0.4716  -17.4995    0.4568  -17.5082    0.4272  -17.4776    0.4776  -17.4976    0.4966   -0.0000  -49.4894
  6.860  -17.4150    0.4345  -17.4626    0.4665  -17.4086    0.4520  -17.4173    0.4224  -17.3869    0.4726  -17.4067    0.4913   -0.0000  -49.4894
  6.870  -17.3249    0.4298  -17.3720    0.4616  -17.3186    0.4472  -17.3273    0.4177  -17.2971    0.4676  -17.3167    0.4861   -0.0000  -49.4894
  6.880  -17.2356    0.4252  -17.2823    0.4567  -17.2294    0.4426  -17.2381    0.4130  -17.2081    0.4628  -17.2275    0.4809   -0.0000  -49.4894
  6.890  -17.1472    0.4206  -17.1934    0.4519  -17.1411    0.4380  -17.1498    0.4085  -17.1200    0.4580  -17.1392    0.4759   -0.0000  -49.4894
  6.900  -17.0596    0.4162  -17.1054    0.4472  -17.0536    0.4335  -17.0623    0.4041  -17.0327    0.4533  -17.0516    0.4710   -0.0000  -49.4894
  6.910  -16.9729    0.4118  -17.0182    0.4426  -16.9670    0.4291  -16.9756    0.3997  -16.9462    0.4488  -16.9650    0.4661   -0.0000  -49.4894
  6.920  -16.8869    0.4075  -16.9318    0.4380  -16.8811    0.4248  -16.8897    0.3954  -16.8605    0.4442  -16.8791    0.4614   -0.0000  -49.4894
  6.930  -16.8018    0.4033  -16.8462    0.4336  -16.7960    0.4206  -16.8046    0.3912  -16.7756    0.4398  -16.7940    0.4567   -0.0000  -49.4894
  6.940  -16.7174    0.3992  -16.7614    0.4292  -16.7117    0.4164  -16.7203    0.3871  -16.6915    0.4355  -16.7096    0.4521   -0.0000  -49.4894
  6.950  -16.6338    0.3951  -16.6774    0.4249  -16.6282    0.4123  -16.6367    0.3831  -16.6081    0.4312  -16.6261    0.4476   -0.0000  -49.4894
  6.960  -16.5509    0.3911  -16.5941    0.4207  -16.5454    0.4083  -16.5539    0.3791  -16.5255    0.4270  -16.5433    0.4432   -0.0000  -49.4894
  6.970  -16.4688    0.3872  -16.5116    0.4165  -16.4633    0.4043  -16.4718    0.3752  -16.4436    0.4229  -16.4612    0.4389   -0.0000  -49.4894
  6.980  -16.3874    0.3833  -16.4299    0.4125  -16.3820    0.4004  -16.3905    0.3713  -16.3625    0.4188  -16.3799    0.4346   -0.0000  -49.4894
  6.990  -16.3067    0.3796  -16.3488    0.4085  -16.3014    0.3966  -16.3099    0.3676  -16.2820    0.4148  -16.2993    0.4304   -0.0000  -49.4894
  7.000  -16.2267    0.3758  -16.2685    0.4045  -16.2215    0.3928  -16.2299    0.3638  -16.2023    0.4109  -16.2194    0.4263   -0.0000  -49.4894
  7.010  -16.1474    0.3722  -16.1888    0.4007  -16.1423    0.3891  -16.1507    0.3602  -16.1233    0.4071  -16.1401    0.4222   -0.0000  -49.4894
  7.020  -16.0688    0.3686  -16.1099    0.3969  -16.0638    0.3855  -16.0722    0.3566  -16.0449    0.4033  -16.0616    0.4183   -0.0000  -49.4894
  7.030  -15.9909    0.3651  -16.0316    0.3931  -15.9859    0.3819  -15.9943    0.3531  -15.9672    0.3995  -15.9837    0.4143   -0.0000  -49.4894
  7.040  -15.9136    0.3616  -15.9541    0.3894  -15.9088    0.3784  -15.9171    0.3496  -15.8902    0.3959  -15.9066    0.4105   -0.0000  -49.4894
  7.050  -15.8370    0.3582  -15.8771    0.3858  -15.8322    0.3749  -15.8405    0.3462  -15.8138    0.3923  -15.8300    0.4067   -0.0000  -49.4894
  7.060  -15.7611    0.3548  -15.8009    0.3823  -15.7563    0.3715  -15.7646    0.3429  -15.7381    0.3887  -15.7541    0.4030   -0.0000  -49.4894
  7.070  -15.6858    0.3515  -15.7252    0.3788  -15.6811    0.3682  -15.6893    0.3396  -15.6629    0.3852  -15.6789    0.3993   -0.0000  -49.4894
  7.080  -15.6111    0.3483  -15.6502    0.3753  -15.6064    0.3649  -15.6147    0.3364  -15.5885    0.3818  -15.6042    0.3957   -0.0000  -49.4894
  7.090  -15.5370    0.3451  -15.5759    0.3719  -15.5324    0.3616  -15.5406    0.3332  -15.5146    0.3784  -15.5302    0.3921   -0.0000  -49.4894
  7.100  -15.4635    0.3419  -15.5021    0.3686  -15.4590    0.3584  -15.4672    0.3300  -15.4413    0.3751  -15.4568    0.3887   -0.0000  -49.4894
  7.110  -15.3906    0.3388  -15.4290    0.3653  -15.3862    0.3553  -15.3944    0.3269  -15.3687    0.3718  -15.3840    0.3852   -0.0000  -49.4894
  7.120  -15.3184    0.3358  -15.3564    0.3621  -15.3140    0.3522  -15.3221    0.3239  -15.2966    0.3686  -15.3118    0.3818   -0.0000  -49.4894
  7.130  -15.2467    0.3328  -15.2844    0.3589  -15.2423    0.3492  -15.2505    0.3209  -15.2251    0.3654  -15.2401    0.3785   -0.0000  -49.4894
  7.140  -15.1755    0.3299  -15.2131    0.3558  -15.1713    0.3462  -15.1794    0.3180  -15.1542    0.3623  -15.1691    0.3752   -0.0000  -49.4894
  7.150  -15.1050    0.3270  -15.1422    0.3527  -15.1008    0.3432  -15.1088    0.3151  -15.0838    0.3592  -15.0986    0.3720   -0.0000  -49.4894
  7.160  -15.0350    0.3241  -15.0720    0.3496  -15.0308    0.3403  -15.0389    0.3122  -15.0140    0.3562  -15.0286    0.3688   -0.0000  -49.4894
  7.170  -14.9655    0.3213  -15.0023    0.3466  -14.9614    0.3374  -14.9694    0.3094  -14.9447    0.3532  -14.9592    0.3657   -0.0000  -49.4894
  7.180  -14.8966    0.3185  -14.9332    0.3437  -14.8926    0.3346  -14.9006    0.3066  -14.8760    0.3503  -14.8904    0.3626   -0.0000  -49.4894
  7.190  -14.8282    0.3158  -14.8646    0.3408  -14.8242    0.3318  -14.8322    0.3039  -14.8078    0.3474  -14.8221    0.3596   -0.0000  -49.4894
  7.200  -14.7604    0.3131  -14.7965    0.3379  -14.7565    0.3291  -14.7644    0.3012  -14.7402    0.3445  -14.7543    0.3566   -0.0000  -49.4894
  7.210  -14.6931    0.3105  -14.7289    0.3351  -14.6892    0.3264  -14.6971    0.2986  -14.6730    0.3417  -14.6870    0.3536   -0.0000  -49.4894
  7.220  -14.6263    0.3078  -14.6619    0.3323  -14.6224    0.3237  -14.6303    0.2960  -14.6064    0.3390  -14.6203    0.3507   -0.0000  -49.4894
  7.230  -14.5600    0.3053  -14.5954    0.3296  -14.5562    0.3211  -14.5641    0.2934  -14.5403    0.3362  -14.5540    0.3479   -0.0000  -49.4894
  7.240  -14.4942    0.3027  -14.5294    0.3269  -14.4904    0.3185  -14.4983    0.2909  -14.4747    0.3336  -14.4883    0.3450   -0.0000  -49.4894
  7.250  -14.4289    0.3002  -14.4639    0.3242  -14.4252    0.3160  -14.4330    0.2884  -14.4095    0.3309  -14.4230    0.3423   -0.0000  -49.4894
  7.260  -14.3640    0.2978  -14.3989    0.3216  -14.3604    0.3134  -14.3682    0.2859  -14.3449    0.3283  -14.3583    0.3395   -0.0000  -49.4894
  7.270  -14.2997    0.2954  -14.3344    0.3190  -14.2961    0.3110  -14.3039    0.2835  -14.2807    0.3257  -14.2940    0.3368   -0.0000  -49.4894
  7.280  -14.2358    0.2930  -14.2703    0.3165  -14.2323    0.3085  -14.2401    0.2811  -14.2170    0.3232  -14.2302    0.3342   -0.0000  -49.4894
  7.290  -14.1724    0.2906  -14.2067    0.3140  -14.1689    0.3061  -14.1767    0.2788  -14.1538    0.3207  -14.1669    0.3316   -0.0000  -49.4894
  7.300  -14.1095    0.2883  -14.1436    0.3115  -14.1060    0.3037  -14.1138    0.2764  -14.0910    0.3182  -14.1040    0.3290   -0.0000  -49.4894
  7.310  -14.0470    0.2860  -14.0810    0.3091  -14.0436    0.3014  -14.0513    0.2741  -14.0287    0.3158  -14.0416    0.3264   -0.0000  -49.4894
  7.320  -13.9850    0.2838  -14.0188    0.3067  -13.9816    0.2991  -13.9893    0.2719  -13.9669    0.3134  -13.9796    0.3239   -0.0000  -49.4894
  7.330  -13.9234    0.2815  -13.9571    0.3043  -13.9201    0.2968  -13.9278    0.2697  -13.9054    0.3110  -13.9181    0.3214   -0.0000  -49.4894
  7.340  -13.8623    0.2794  -13.8958    0.3019  -13.8590    0.2945  -13.8666    0.2675  -13.8445    0.3087  -13.8570    0.3190   -0.0000  -49.4894
  7.350  -13.8016    0.2772  -13.8349    0.2996  -13.7983    0.2923  -13.8060    0.2653  -13.7839    0.3064  -13.7964    0.3166   -0.0000  -49.4894
  7.360  -13.7413    0.2751  -13.7745    0.2973  -13.7381    0.2901  -13.7457    0.2632  -13.7238    0.3041  -13.7362    0.3142   -0.0000  -49.4894
  7.370  -13.6815    0.2730  -13.7145    0.2951  -13.6783    0.2880  -13.6859    0.2611  -13.6641    0.3019  -13.6764    0.3119   -0.0000  -49.4894
  7.380  -13.6221    0.2709  -13.6549    0.2929  -13.6189    0.2858  -13.6265    0.2590  -13.6048    0.2997  -13.6170    0.3095   -0.0000  -49.4894
  7.390  -13.5630    0.2688  -13.5958    0.2907  -13.5599    0.2837  -13.5675    0.2569  -13.5460    0.2975  -13.5580    0.3073   -0.0000  -49.4894
  7.400  -13.5044    0.2668  -13.5370    0.2885  -13.5013    0.2817  -13.5089    0.2549  -13.4875    0.2953  -13.4995    0.3050   -0.0000  -49.4894
  7.410  -13.4462    0.2648  -13.4787    0.2864  -13.4432    0.2796  -13.4507    0.2529  -13.4295    0.2932  -13.4413    0.3028   -0.0000  -49.4894
  7.420  -13.3884    0.2629  -13.4208    0.2843  -13.3854    0.2776  -13.3929    0.2509  -13.3718    0.2911  -13.3836    0.3006   -0.0000  -49.4894
  7.430  -13.3310    0.2609  -13.3632    0.2822  -13.3280    0.2756  -13.3355    0.2490  -13.3146    0.2891  -13.3262    0.2984   -0.0000  -49.4894
  7.440  -13.2740    0.2590  -13.3061    0.2802  -13.2710    0.2736  -13.2785    0.2471  -13.2577    0.2870  -13.2693    0.2963   -0.0000  -49.4894
  7.450  -13.2173    0.2571  -13.2494    0.2781  -13.2144    0.2717  -13.2219    0.2452  -13.2012    0.2850  -13.2127    0.2942   -0.0000  -49.4894
  7.460  -13.1611    0.2553  -13.1930    0.2762  -13.1582    0.2698  -13.1657    0.2433  -13.1451    0.2830  -13.1565    0.2921   -0.0000  -49.4894
  7.470  -13.1052    0.2534  -13.1370    0.2742  -13.1023    0.2679  -13.1098    0.2414  -13.0893    0.2811  -13.1007    0.2901   -0.0000  -49.4894
  7.480  -13.0497    0.2516  -13.0814    0.2722  -13.0469    0.2660  -13.0543    0.2396  -13.0340    0.2791  -13.0452    0.2881   -0.0000  -49.4894
  7.490  -12.9946    0.2498  -13.0262    0.2703  -12.9918    0.2642  -12.9992    0.2378  -12.9790    0.2772  -12.9902    0.2861   -0.0000  -49.4894
  7.500  -12.9398    0.2481  -12.9713    0.2684  -12.9370    0.2623  -12.9444    0.2360  -12.9243    0.2753  -12.9354    0.2841   -0.0000  -49.4894
  7.510  -12.8854    0.2463  -12.9168    0.2665  -12.8826    0.2605  -12.8900    0.2343  -12.8700    0.2735  -12.8811    0.2822   -0.0000  -49.4894
  7.520  -12.8313    0.2446  -12.8626    0.2647  -12.8286    0.2588  -12.8360    0.2325  -12.8161    0.2716  -12.8271    0.2802   -0.0000  -49.4894
  7.530  -12.7776    0.2429  -12.8088    0.2629  -12.7749    0.2570  -12.7823    0.2308  -12.7625    0.2698  -12.7734    0.2783   -0.0000  -49.4894
  7.540  -12.7242    0.2412  -12.7554    0.2611  -12.7215    0.2553  -12.7289    0.2291  -12.7093    0.2680  -12.7201    0.2765   -0.0000  -49.4894
  7.550  -12.6712    0.2396  -12.7023    0.2593  -12.6685    0.2536  -12.6759    0.2274  -12.6564    0.2663  -12.6671    0.2746   -0.0000  -49.4894
  7.560  -12.6185    0.2379  -12.6495    0.2575  -12.6159    0.2519  -12.6232    0.2258  -12.6039    0.2645  -12.6145    0.2728   -0.0000  -49.4894
  7.570  -12.5661    0.2363  -12.5971    0.2558  -12.5635    0.2502  -12.5709    0.2241  -12.5516    0.2628  -12.5622    0.2710   -0.0000  -49.4894
  7.580  -12.5141    0.2347  -12.5450    0.2541  -12.5115    0.2485  -12.5189    0.2225  -12.4997    0.2611  -12.5102    0.2692   -0.0000  -49.4894
  7.590  -12.4624    0.2332  -12.4933    0.2524  -12.4599    0.2469  -12.4672    0.2209  -12.4482    0.2594  -12.4586    0.2675   -0.0000  -49.4894
  7.600  -12.4110    0.2316  -12.4418    0.2507  -12.4085    0.2453  -12.4158    0.2193  -12.3969    0.2578  -12.4073    0.2657   -0.0000  -49.4894
  7.610  -12.3600    0.2301  -12.3907    0.2490  -12.3575    0.2437  -12.3648    0.2178  -12.3460    0.2561  -12.3563    0.2640   -0.0000  -49.4894
  7.620  -12.3092    0.2285  -12.3400    0.2474  -12.3068    0.2421  -12.3141    0.2162  -12.2954    0.2545  -12.3056    0.2623   -0.0000  -49.4894
  7.630  -12.2588    0.2271  -12.2895    0.2458  -12.2564    0.2406  -12.2636    0.2147  -12.2451    0.2529  -12.2552    0.2607   -0.0000  -49.4894
  7.640  -12.2087    0.2256  -12.2393    0.2442  -12.2063    0.2391  -12.2135    0.2132  -12.1951    0.2513  -12.2052    0.2590   -0.0000  -49.4894
  7.650  -12.1589    0.2241  -12.1895    0.2426  -12.1565    0.2375  -12.1637    0.2117  -12.1454    0.2498  -12.1554    0.2574   -0.0000  -49.4894
  7.660  -12.1094    0.2227  -12.1399    0.2411  -12.1070    0.2360  -12.1143    0.2103  -12.0961    0.2482  -12.1060    0.2558   -0.0000  -49.4894
  7.670  -12.0601    0.2213  -12.0907    0.2395  -12.0578    0.2346  -12.0651    0.2088  -12.0470    0.2467  -12.0568    0.2542   -0.0000  -49.4894
  7.680  -12.0112    0.2199  -12.0418    0.2380  -12.0089    0.2331  -12.0162    0.2074  -11.9982    0.2452  -12.0080    0.2527   -0.0000  -49.4894
  7.690  -11.9626    0.2185  -11.9931    0.2365  -11.9603    0.2317  -11.9676    0.2059  -11.9497    0.2437  -11.9594    0.2511   -0.0000  -49.4894
  7.700  -11.9143    0.2171  -11.9448    0.2350  -11.9120    0.2302  -11.9192    0.2045  -11.9015    0.2423  -11.9112    0.2496   -0.0000  -49.4894
  7.710  -11.8662    0.2157  -11.8967    0.2335  -11.8640    0.2288  -11.8712    0.2031  -11.8536    0.2408  -11.8632    0.2481   -0.0000  -49.4894
  7.720  -11.8184    0.2144  -11.8489    0.2321  -11.8162    0.2274  -11.8235    0.2018  -11.8059    0.2394  -11.8155    0.2466   -0.0000  -49.4894
  7.730  -11.7710    0.2131  -11.8014    0.2307  -11.7687    0.2261  -11.7760    0.2004  -11.7586    0.2380  -11.7680    0.2451   -0.0000  -49.4894
  7.740  -11.7237    0.2118  -11.7542    0.2292  -11.7215    0.2247  -11.7288    0.1991  -11.7115    0.2366  -11.7209    0.2437   -0.0000  -49.4894
  7.750  -11.6768    0.2105  -11.7073    0.2278  -11.6746    0.2234  -11.6819    0.1977  -11.6647    0.2352  -11.6740    0.2422   -0.0000  -49.4894
  7.760  -11.6301    0.2092  -11.6606    0.2265  -11.6280    0.2220  -11.6352    0.1964  -11.6181    0.2339  -11.6274    0.2408   -0.0000  -49.4894
  7.770  -11.5837    0.2080  -11.6142    0.2251  -11.5816    0.2207  -11.5888    0.1951  -11.5719    0.2325  -11.5811    0.2394   -0.0000  -49.4894
  7.780  -11.5376    0.2067  -11.5681    0.2237  -11.5355    0.2194  -11.5427    0.1938  -11.5258    0.2312  -11.5350    0.2380   -0.0000  -49.4894
  7.790  -11.4917    0.2055  -11.5223    0.2224  -11.4896    0.2181  -11.4969    0.1926  -11.4801    0.2299  -11.4892    0.2367   -0.0000  -49.4894
  7.800  -11.4461    0.2043  -11.4767    0.2211  -11.4440    0.2169  -11.4513    0.1913  -11.4346    0.2286  -11.4437    0.2353   -0.0000  -49.4894
  7.810  -11.4008    0.2031  -11.4313    0.2198  -11.3987    0.2156  -11.4059    0.1900  -11.3894    0.2274  -11.3984    0.2340   -0.0000  -49.4894
  7.820  -11.3556    0.2019  -11.3863    0.2185  -11.3536    0.2144  -11.3609    0.1888  -11.3444    0.2261  -11.3534    0.2327   -0.0000  -49.4894
  7.830  -11.3108    0.2007  -11.3414    0.2172  -11.3087    0.2132  -11.3160    0.1876  -11.2997    0.2249  -11.3086    0.2314   -0.0000  -49.4894
  7.840  -11.2662    0.1996  -11.2969    0.2160  -11.2642    0.2120  -11.2714    0.1864  -11.2552    0.2236  -11.2640    0.2301   -0.0000  -49.4894
  7.850  -11.2218    0.1984  -11.2526    0.2147  -11.2198    0.2108  -11.2271    0.1852  -11.2109    0.2224  -11.2197    0.2288   -0.0000  -49.4894
  7.860  -11.1777    0.1973  -11.2085    0.2135  -11.1757    0.2096  -11.1830    0.1840  -11.1669    0.2212  -11.1757    0.2276   -0.0000  -49.4894
  7.870  -11.1338    0.1962  -11.1647    0.2123  -11.1318    0.2084  -11.1391    0.1828  -11.1232    0.2200  -11.1319    0.2264   -0.0000  -49.4894
  7.880  -11.0902    0.1951  -11.1211    0.2111  -11.0882    0.2073  -11.0955    0.1817  -11.0797    0.2189  -11.0883    0.2252   -0.0000  -49.4894
  7.890  -11.0468    0.1940  -11.0777    0.2099  -11.0448    0.2061  -11.0521    0.1805  -11.0364    0.2177  -11.0450    0.2240   -0.0000  -49.4894
  7.900  -11.0036    0.1930  -11.0346    0.2087  -11.0016    0.2050  -11.0090    0.1794  -10.9933    0.2166  -11.0019    0.2228   -0.0000  -49.4894
  7.910  -10.9606    0.1919  -10.9917    0.2075  -10.9587    0.2039  -10.9660    0.1783  -10.9505    0.2155  -10.9590    0.2216   -0.0000  -49.4894
  7.920  -10.9179    0.1909  -10.9491    0.2064  -10.9160    0.2028  -10.9233    0.1772  -10.9079    0.2144  -10.9163    0.2204   -0.0000  -49.4894
  7.930  -10.8754    0.1898  -10.9067    0.2053  -10.8735    0.2017  -10.8809    0.1761  -10.8655    0.2133  -10.8739    0.2193   -0.0000  -49.4894
  7.940  -10.8331    0.1888  -10.8645    0.2041  -10.8312    0.2006  -10.8386    0.1750  -10.8234    0.2122  -10.8317    0.2182   -0.0000  -49.4894
  7.950  -10.7911    0.1878  -10.8225    0.2030  -10.7892    0.1996  -10.7966    0.1739  -10.7814    0.2111  -10.7897    0.2171   -0.0000  -49.4894
  7.960  -10.7492    0.1868  -10.7807    0.2019  -10.7473    0.1985  -10.7548    0.1728  -10.7397    0.2101  -10.7480    0.2160   -0.0000  -49.4894
  7.970  -10.7076    0.1859  -10.7392    0.2009  -10.7057    0.1975  -10.7131    0.1718  -10.6982    0.2091  -10.7064    0.2149   -0.0000  -49.4894
  7.980  -10.6662    0.1849  -10.6979    0.1998  -10.6643    0.1965  -10.6718    0.1707  -10.6569    0.2080  -10.6651    0.2138   -0.0000  -49.4894
  7.990  -10.6249    0.1839  -10.6568    0.1987  -10.6231    0.1955  -10.6306    0.1697  -10.6158    0.2070  -10.6240    0.2128   -0.0000  -49.4894
  8.000  -10.5839    0.1830  -10.6159    0.1977  -10.5821    0.1945  -10.5896    0.1687  -10.5750    0.2060  -10.5830    0.2118   -0.0000  -49.4894
  8.010  -10.5431    0.1821  -10.5752    0.1967  -10.5413    0.1935  -10.5488    0.1677  -10.5343    0.2051  -10.5423    0.2107   -0.0000  -49.4894
  8.020  -10.5025    0.1812  -10.5347    0.1956  -10.5007    0.1925  -10.5083    0.1667  -10.4938    0.2041  -10.5018    0.2097   -0.0000  -49.4894
  8.030  -10.4621    0.1803  -10.4945    0.1946  -10.4603    0.1916  -10.4679    0.1657  -10.4536    0.2031  -10.4615    0.2087   -0.0000  -49.4894
  8.040  -10.4219    0.1794  -10.4544    0.1936  -10.4202    0.1906  -10.4277    0.1647  -10.4135    0.2022  -10.4214    0.2078   -0.0000  -49.4894
  8.050  -10.3819    0.1785  -10.4145    0.1926  -10.3802    0.1897  -10.3878    0.1637  -10.3736    0.2013  -10.3815    0.2068   -0.0000  -49.4894
  8.060  -10.3421    0.1776  -10.3749    0.1917  -10.3403    0.1888  -10.3480    0.1627  -10.3339    0.2004  -10.3417    0.2058   -0.0000  -49.4894
  8.070  -10.3025    0.1768  -10.3354    0.1907  -10.3007    0.1879  -10.3084    0.1618  -10.2945    0.1995  -10.3022    0.2049   -0.0000  -49.4894
  8.080  -10.2631    0.1759  -10.2961    0.1898  -10.2613    0.1870  -10.2690    0.1608  -10.2552    0.1986  -10.2629    0.2040   -0.0000  -49.4894
  8.090  -10.2238    0.1751  -10.2570    0.1888  -10.2221    0.1861  -10.2298    0.1599  -10.2160    0.1977  -10.2237    0.2031   -0.0000  -49.4894
  8.100  -10.1847    0.1743  -10.2181    0.1879  -10.1830    0.1852  -10.1907    0.1590  -10.1771    0.1969  -10.1847    0.2022   -0.0000  -49.4894
  8.110  -10.1458    0.1735  -10.1794    0.1870  -10.1441    0.1844  -10.1519    0.1580  -10.1384    0.1960  -10.1459    0.2013   -0.0000  -49.4894
  8.120  -10.1071    0.1727  -10.1409    0.1861  -10.1054    0.1835  -10.1132    0.1571  -10.0998    0.1952  -10.1073    0.2004   -0.0000  -49.4894
  8.130  -10.0686    0.1719  -10.1026    0.1852  -10.0669    0.1827  -10.0747    0.1562  -10.0614    0.1944  -10.0689    0.1996   -0.0000  -49.4894
  8.140  -10.0302    0.1711  -10.0644    0.1843  -10.0285    0.1819  -10.0364    0.1553  -10.0232    0.1936  -10.0306    0.1987   -0.0000  -49.4894
  8.150   -9.9920    0.1704  -10.0264    0.1835   -9.9903    0.1810   -9.9982    0.1544   -9.9851    0.1928   -9.9926    0.1979   -0.0000  -49.4894
  8.160   -9.9540    0.1696   -9.9886    0.1826   -9.9523    0.1802   -9.9603    0.1536   -9.9473    0.1920   -9.9546    0.1971   -0.0000  -49.4894
  8.170   -9.9162    0.1689   -9.9510    0.1818   -9.9145    0.1795   -9.9225    0.1527   -9.9095    0.1913   -9.9169    0.1963   -0.0000  -49.4894
  8.180   -9.8785    0.1682   -9.9135    0.1809   -9.8768    0.1787   -9.8848    0.1518   -9.8720    0.1905   -9.8793    0.1955   -0.0000  -49.4894
  8.190   -9.8410    0.1675   -9.8762    0.1801   -9.8393    0.1779   -9.8473    0.1510   -9.8346    0.1898   -9.8419    0.1948   -0.0000  -49.4894
  8.200   -9.8036    0.1668   -9.8391    0.1793   -9.8019    0.1772   -9.8100    0.1501   -9.7974    0.1891   -9.8047    0.1940   -0.0000  -49.4894
  8.210   -9.7664    0.1661   -9.8022    0.1785   -9.7647    0.1764   -9.7728    0.1493   -9.7604    0.1884   -9.7676    0.1933   -0.0000  -49.4894
  8.220   -9.7293    0.1654   -9.7654    0.1777   -9.7276    0.1757   -9.7358    0.1485   -9.7235    0.1877   -9.7306    0.1926   -0.0000  -49.4894
  8.230   -9.6924    0.1648   -9.7288    0.1769   -9.6908    0.1750   -9.6990    0.1477   -9.6867    0.1870   -9.6938    0.1918   -0.0000  -49.4894
  8.240   -9.6557    0.1641   -9.6923    0.1762   -9.6540    0.1743   -9.6623    0.1468   -9.6501    0.1864   -9.6572    0.1912   -0.0000  -49.4894
  8.250   -9.6191    0.1635   -9.6560    0.1754   -9.6174    0.1736   -9.6257    0.1460   -9.6137    0.1857   -9.6207    0.1905   -0.0000  -49.4894
  8.260   -9.5826    0.1628   -9.6198    0.1747   -9.5809    0.1729   -9.5893    0.1452   -9.5774    0.1851   -9.5844    0.1898   -0.0000  -49.4894
  8.270   -9.5463    0.1622   -9.5838    0.1739   -9.5446    0.1722   -9.5531    0.1444   -9.5412    0.1845   -9.5482    0.1892   -0.0000  -49.4894
  8.280   -9.5101    0.1616   -9.5480    0.1732   -9.5085    0.1715   -9.5170    0.1437   -9.5052    0.1838   -9.5122    0.1885   -0.0000  -49.4894
  8.290   -9.4741    0.1610   -9.5123    0.1725   -9.4724    0.1709   -9.4810    0.1429   -9.4694    0.1833   -9.4763    0.1879   -0.0000  -49.4894
  8.300   -9.4382    0.1605   -9.4767    0.1718   -9.4365    0.1703   -9.4452    0.1421   -9.4336    0.1827   -9.4405    0.1873   -0.0000  -49.4894
  8.310   -9.4024    0.1599   -9.4413    0.1711   -9.4008    0.1696   -9.4094    0.1413   -9.3981    0.1821   -9.4049    0.1867   -0.0000  -49.4894
  8.320   -9.3668    0.1594   -9.4060    0.1704   -9.3651    0.1690   -9.3739    0.1406   -9.3626    0.1816   -9.3694    0.1861   -0.0000  -49.4894
  8.330   -9.3313    0.1588   -9.3709    0.1698   -9.3296    0.1684   -9.3384    0.1398   -9.3273    0.1811   -9.3341    0.1856   -0.0000  -49.4894
  8.340   -9.2959    0.1583   -9.3359    0.1691   -9.2943    0.1678   -9.3031    0.1391   -9.2921    0.1805   -9.2988    0.1850   -0.0000  -49.4894
  8.350   -9.2607    0.1578   -9.3010    0.1685   -9.2590    0.1673   -9.2679    0.1384   -9.2570    0.1800   -9.2637    0.1845   -0.0000  -49.4894
  8.360   -9.2255    0.1573   -9.2663    0.1678   -9.2239    0.1667   -9.2329    0.1376   -9.2221    0.1796   -9.2288    0.1840   -0.0000  -49.4894
  8.370   -9.1905    0.1568   -9.2317    0.1672   -9.1888    0.1662   -9.1979    0.1369   -9.1872    0.1791   -9.1939    0.1835   -0.0000  -49.4894
  8.380   -9.1556    0.1564   -9.1973    0.1666   -9.1539    0.1656   -9.1631    0.1362   -9.1525    0.1787   -9.1592    0.1830   -0.0000  -49.4894
  8.390   -9.1208    0.1559   -9.1630    0.1660   -9.1192    0.1651   -9.1284    0.1355   -9.1180    0.1782   -9.1246    0.1826   -0.0000  -49.4894
  8.400   -9.0862    0.1555   -9.1287    0.1654   -9.0845    0.1646   -9.0938    0.1348   -9.0835    0.1778   -9.0901    0.1821   -0.0000  -49.4894
  8.410   -9.0516    0.1550   -9.0947    0.1648   -9.0499    0.1641   -9.0593    0.1341   -9.0491    0.1774   -9.0557    0.1817   -0.0000  -49.4894
  8.420   -9.0171    0.1546   -9.0607    0.1643   -9.0154    0.1636   -9.0249    0.1334   -9.0149    0.1770   -9.0214    0.1813   -0.0000  -49.4894
  8.430   -8.9828    0.1542   -9.0269    0.1637   -8.9811    0.1632   -8.9907    0.1327   -8.9807    0.1767   -8.9872    0.1809   -0.0000  -49.4894
  8.440   -8.9485    0.1539   -8.9931    0.1632   -8.9468    0.1627   -8.9565    0.1320   -8.9467    0.1763   -8.9531    0.1805   -0.0000  -49.4894
  8.450   -8.9143    0.1535   -8.9595    0.1627   -8.9126    0.1623   -8.9224    0.1314   -8.9128    0.1760   -8.9192    0.1802   -0.0000  -49.4894
  8.460   -8.8803    0.1532   -8.9260    0.1622   -8.8786    0.1619   -8.8884    0.1307   -8.8789    0.1757   -8.8853    0.1799   -0.0000  -49.4894
  8.470   -8.8463    0.1528   -8.8926    0.1617   -8.8446    0.1615   -8.8545    0.1301   -8.8452    0.1754   -8.8515    0.1796   -0.0000  -49.4894
  8.480   -8.8124    0.1525   -8.8593    0.1612   -8.8107    0.1611   -8.8207    0.1294   -8.8115    0.1752   -8.8179    0.1793   -0.0000  -49.4894
  8.490   -8.7786    0.1522   -8.8262    0.1607   -8.7768    0.1607   -8.7870    0.1288   -8.7780    0.1749   -8.7843    0.1790   -0.0000  -49.4894
  8.500   -8.7449    0.1520   -8.7931    0.1603   -8.7431    0.1604   -8.7534    0.1281   -8.7445    0.1747   -8.7508    0.1788   -0.0000  -49.4894
  8.510   -8.7112    0.1517   -8.7601    0.1598   -8.7094    0.1600   -8.7199    0.1275   -8.7111    0.1745   -8.7173    0.1785   -0.0000  -49.4894
  8.520   -8.6776    0.1515   -8.7272    0.1594   -8.6758    0.1597   -8.6864    0.1269   -8.6778    0.1744   -8.6840    0.1783   -0.0000  -49.4894
  8.530   -8.6441    0.1513   -8.6944    0.1590   -8.6423    0.1594   -8.6530    0.1263   -8.6445    0.1742   -8.6507    0.1782   -0.0000  -49.4894
  8.540   -8.6107    0.1511   -8.6617    0.1586   -8.6089    0.1591   -8.6197    0.1256   -8.6114    0.1741   -8.6175    0.1780   -0.0000  -49.4894
  8.550   -8.5773    0.1509   -8.6291    0.1582   -8.5755    0.1589   -8.5864    0.1250   -8.5783    0.1740   -8.5844    0.1779   -0.0000  -49.4894
  8.560   -8.5440    0.1507   -8.5966    0.1578   -8.5421    0.1586   -8.5532    0.1244   -8.5452    0.1739   -8.5514    0.1778   -0.0000  -49.4894
  8.570   -8.5107    0.1506   -8.5642    0.1574   -8.5089    0.1584   -8.5200    0.1238   -8.5123    0.1739   -8.5184    0.1777   -0.0000  -49.4894
  8.580   -8.4775    0.1505   -8.5318    0.1571   -8.4756    0.1582   -8.4870    0.1233   -8.4794    0.1738   -8.4854    0.1777   -0.0000  -49.4894
  8.590   -8.4443    0.1504   -8.4995    0.1568   -8.4424    0.1580   -8.4539    0.1227   -8.4465    0.1738   -8.4526    0.1777   -0.0000  -49.4894
  8.600   -8.4112    0.1503   -8.4673    0.1565   -8.4093    0.1578   -8.4209    0.1221   -8.4137    0.1739   -8.4197    0.1777   -0.0000  -49.4894
  8.610   -8.3781    0.1503   -8.4351    0.1562   -8.3762    0.1577   -8.3880    0.1215   -8.3810    0.1740   -8.3870    0.1777   -0.0000  -49.4894
  8.620   -8.3451    0.1503   -8.4031    0.1559   -8.3431    0.1576   -8.3550    0.1210   -8.3483    0.1741   -8.3542    0.1778   -0.0000  -49.4894
  8.630   -8.3120    0.1503   -8.3711    0.1556   -8.3100    0.1575   -8.3222    0.1204   -8.3156    0.1742   -8.3215    0.1779   -0.0000  -49.4894
  8.640   -8.2790    0.1503   -8.3391    0.1554   -8.2770    0.1574   -8.2893    0.1199   -8.2830    0.1744   -8.2889    0.1781   -0.0000  -49.4894
  8.650   -8.2460    0.1504   -8.3072    0.1552   -8.2440    0.1574   -8.2565    0.1193   -8.2503    0.1746   -8.2562    0.1783   -0.0000  -49.4894
  8.660   -8.2131    0.1505   -8.2754    0.1550   -8.2110    0.1574   -8.2237    0.1188   -8.2178    0.1748   -8.2236    0.1785   -0.0000  -49.4894
  8.670   -8.1801    0.1507   -8.2436    0.1548   -8.1780    0.1574   -8.1909    0.1183   -8.1852    0.1751   -8.1910    0.1787   -0.0000  -49.4894
  8.680   -8.1471    0.1508   -8.2119    0.1546   -8.1450    0.1574   -8.1580    0.1177   -8.1527    0.1754   -8.1585    0.1790   -0.0000  -49.4894
  8.690   -8.1142    0.1510   -8.1802    0.1545   -8.1120    0.1575   -8.1252    0.1172   -8.1201    0.1758   -8.1259    0.1794   -0.0000  -49.4894
  8.700   -8.0812    0.1513   -8.1485    0.1544   -8.0789    0.1576   -8.0924    0.1167   -8.0876    0.1762   -8.0934    0.1798   -0.0000  -49.4894
  8.710   -8.0482    0.1516   -8.1169    0.1543   -8.0459    0.1577   -8.0596    0.1162   -8.0550    0.1766   -8.0608    0.1802   -0.0000  -49.4894
  8.720   -8.0152    0.1519   -8.0853    0.1542   -8.0128    0.1579   -8.0268    0.1157   -8.0225    0.1771   -8.0282    0.1807   -0.0000  -49.4894
  8.730   -7.9821    0.1523   -8.0537    0.1541   -7.9797    0.1581   -7.9939    0.1152   -7.9899    0.1777   -7.9956    0.1812   -0.0000  -49.4894
  8.740   -7.9490    0.1527   -8.0222    0.1541   -7.9466    0.1584   -7.9610    0.1147   -7.9573    0.1783   -7.9630    0.1818   -0.0000  -49.4894
  8.750   -7.9159    0.1531   -7.9906    0.1541   -7.9134    0.1587   -7.9281    0.1143   -7.9247    0.1790   -7.9304    0.1825   -0.0000  -49.4894
  8.760   -7.8827    0.1536   -7.9591    0.1541   -7.8801    0.1590   -7.8951    0.1138   -7.8921    0.1797   -7.8977    0.1832   -0.0000  -49.4894
  8.770   -7.8494    0.1542   -7.9276    0.1542   -7.8468    0.1594   -7.8620    0.1133   -7.8594    0.1805   -7.8650    0.1839   -0.0000  -49.4894
  8.780   -7.8160    0.1548   -7.8961    0.1543   -7.8134    0.1598   -7.8289    0.1129   -7.8267    0.1813   -7.8323    0.1848   -0.0000  -49.4894
  8.790   -7.7826    0.1555   -7.8645    0.1544   -7.7799    0.1603   -7.7957    0.1125   -7.7939    0.1823   -7.7994    0.1857   -0.0000  -49.4894
  8.800   -7.7491    0.1562   -7.8330    0.1546   -7.7463    0.1608   -7.7624    0.1120   -7.7610    0.1832   -7.7666    0.1866   -0.0000  -49.4894
  8.810   -7.7155    0.1570   -7.8015    0.1547   -7.7126    0.1614   -7.7290    0.1116   -7.7280    0.1843   -7.7336    0.1877   -0.0000  -49.4894
  8.820   -7.6817    0.1579   -7.7699    0.1550   -7.6787    0.1620   -7.6955    0.1112   -7.6950    0.1855   -7.7005    0.1888   -0.0000  -49.4894
  8.830   -7.6479    0.1588   -7.7383    0.1552   -7.6448    0.1627   -7.6619    0.1108   -7.6619    0.1867   -7.6674    0.1900   -0.0000  -49.4894
  8.840   -7.6139    0.1598   -7.7066    0.1555   -7.6107    0.1634   -7.6282    0.1104   -7.6286    0.1880   -7.6341    0.1913   -0.0001  -49.4894
  8.850   -7.5797    0.1609   -7.6750    0.1558   -7.5764    0.1643   -7.5943    0.1100   -7.5953    0.1895   -7.6008    0.1927   -0.0002  -49.4894
  8.860   -7.5454    0.1621   -7.6432    0.1562   -7.5419    0.1652   -7.5602    0.1097   -7.5618    0.1910   -7.5672    0.1943   -0.0005  -49.4894
  8.870   -7.5109    0.1634   -7.6114    0.1566   -7.5073    0.1662   -7.5260    0.1093   -7.5282    0.1926   -7.5336    0.1959   -0.0009  -49.4894
  8.880   -7.4761    0.1648   -7.5796    0.1571   -7.4724    0.1672   -7.4915    0.1090   -7.4944    0.1944   -7.4998    0.1976   -0.0018  -49.4894
  8.890   -7.4412    0.1663   -7.5476    0.1576   -7.4373    0.1684   -7.4569    0.1086   -7.4604    0.1963   -7.4658    0.1995   -0.0035  -49.4894
  8.900   -7.4060    0.1679   -7.5156    0.1582   -7.4020    0.1696   -7.4220    0.1083   -7.4262    0.1983   -7.4316    0.2015   -0.0067  -49.4894
  8.910   -7.3706    0.1696   -7.4835    0.1588   -7.3664    0.1710   -7.3869    0.1080   -7.3919    0.2004   -7.3972    0.2036   -0.0124  -49.4894
  8.920   -7.3349    0.1715   -7.4513    0.1595   -7.3305    0.1724   -7.3515    0.1077   -7.3573    0.2028   -7.3627    0.2059   -0.0226  -49.4894
  8.930   -7.2989    0.1735   -7.4189    0.1602   -7.2943    0.1740   -7.3158    0.1075   -7.3225    0.2052   -7.3278    0.2084   -0.0405  -49.4894
  8.940   -7.2626    0.1756   -7.3864    0.1610   -7.2577    0.1757   -7.2797    0.1072   -7.2874    0.2079   -7.2927    0.2110   -0.0710  -49.4894
  8.950   -7.2259    0.1780   -7.3538    0.1619   -7.2208    0.1775   -7.2434    0.1070   -7.2521    0.2107   -7.2574    0.2139   -0.1220  -49.4895
  8.960   -7.1888    0.1805   -7.3211    0.1629   -7.1835    0.1795   -7.2066    0.1068   -7.2164    0.2138   -7.2217    0.2169   -0.2056  -49.4896
  8.970   -7.1514    0.1832   -7.2881    0.1639   -7.1457    0.1816   -7.1695    0.1066   -7.1804    0.2171   -7.1857    0.2202   -0.3398  -49.4897
  8.980   -7.1135    0.1861   -7.2550    0.1650   -7.1075    0.1839   -7.1319    0.1065   -7.1441    0.2206   -7.1493    0.2237   -0.5510  -49.4899
  8.990   -7.0751    0.1892   -7.2217    0.1662   -7.0687    0.1864   -7.0938    0.1064   -7.1073    0.2244   -7.1126    0.2274   -0.8767  -49.4902
  9.000   -7.0362    0.1926   -7.1882    0.1675   -7.0294    0.1891   -7.0552    0.1063   -7.0702    0.2284   -7.0754    0.2315   -1.3692  -49.4907
  9.010   -6.9968    0.1963   -7.1544    0.1689   -6.9895    0.1920   -7.0160    0.1062   -7.0326    0.2328   -7.0378    0.2358   -2.1005  -49.4915
  9.020   -6.9567    0.2003   -7.1204    0.1704   -6.9490    0.1952   -6.9763    0.1062   -6.9946    0.2375   -6.9998    0.2405   -3.1673  -49.4927
  9.030   -6.9160    0.2046   -7.0861    0.1720   -6.9078    0.1986   -6.9358    0.1062   -6.9560    0.2425   -6.9612    0.2455   -4.6985  -49.4944
  9.040   -6.8747    0.2092   -7.0516    0.1737   -6.8658    0.2023   -6.8947    0.1063   -6.9169    0.2480   -6.9221    0.2510   -6.8641  -49.4969
  9.050   -6.8325    0.2143   -7.0167    0.1756   -6.8230    0.2063   -6.8527    0.1064   -6.8772    0.2539   -6.8823    0.2569   -9.8875  -49.5005
  9.060   -6.7896    0.2198   -6.9815    0.1776   -6.7793    0.2106   -6.8099    0.1066   -6.8368    0.2603   -6.8419    0.2632  -14.0596  -49.5057
  9.070   -6.7457    0.2257   -6.9459    0.1798   -6.7346    0.2153   -6.7662    0.1068   -6.7957    0.2672   -6.8009    0.2701  -19.7557  -49.5130
  9.080   -6.7010    0.2322   -6.9099    0.1821   -6.6888    0.2205   -6.7214    0.1071   -6.7539    0.2747   -6.7590    0.2776  -27.4517  -49.5231
  9.090   -6.6551    0.2394   -6.8736    0.1846   -6.6419    0.2261   -6.6755    0.1075   -6.7113    0.2828   -6.7164    0.2857  -37.7326  -49.5369
  9.100   -6.6082    0.2471   -6.8367    0.1873   -6.5937    0.2322   -6.6284    0.1080   -6.6678    0.2917   -6.6729    0.2946  -51.2861  -49.5558
  9.110   -6.5600    0.2556   -6.7994    0.1902   -6.5442    0.2390   -6.5799    0.1087   -6.6233    0.3014   -6.6284    0.3042  -68.8671  -49.5811
  9.120   -6.5105    0.2650   -6.7615    0.1933   -6.4931    0.2463   -6.5300    0.1094   -6.5779    0.3119   -6.5830    0.3147  -91.2245  -49.6146
  9.130   -6.4595    0.2753   -6.7231    0.1967   -6.4403    0.2544   -6.4784    0.1103   -6.5313    0.3234   -6.5364    0.3263 -118.9821  -49.6583
  9.140   -6.4070    0.2866   -6.6841    0.2003   -6.3857    0.2633   -6.4250    0.1113   -6.4835    0.3361   -6.4886    0.3389 -152.4819  -49.7144
  9.150   -6.3527    0.2991   -6.6444    0.2042   -6.3290    0.2732   -6.3696    0.1125   -6.4344    0.3500   -6.4395    0.3528 -191.6096  -49.7848
  9.160   -6.2966    0.3130   -6.6040    0.2085   -6.2701    0.2841   -6.3120    0.1140   -6.3839    0.3653   -6.3890    0.3681 -235.6410  -49.8714
  9.170   -6.2384    0.3285   -6.5629    0.2131   -6.2087    0.2962   -6.2518    0.1158   -6.3319    0.3823   -6.3370    0.3850 -283.1548  -49.9754
  9.180   -6.1779    0.3457   -6.5209    0.2180   -6.1445    0.3097   -6.1889    0.1178   -6.2782    0.4010   -6.2833    0.4038 -332.0538  -50.0975
  9.190   -6.1150    0.3649   -6.4781    0.2234   -6.0771    0.3249   -6.1229    0.1202   -6.2228    0.4219   -6.2279    0.4246 -379.7182  -50.2370
  9.200   -6.0495    0.3865   -6.4344    0.2292   -6.0063    0.3418   -6.0533    0.1231   -6.1654    0.4451   -6.1705    0.4479 -423.2796  -50.3926
  9.210   -5.9809    0.4108   -6.3896    0.2355   -5.9314    0.3610   -5.9797    0.1265   -6.1060    0.4712   -6.1111    0.4739 -459.9724  -50.5616
  9.220   -5.9092    0.4383   -6.3437    0.2423   -5.8522    0.3827   -5.9016    0.1306   -6.0443    0.5004   -6.0494    0.5030 -487.4920  -50.7407
  9.230   -5.8339    0.4694   -6.2966    0.2496   -5.7679    0.4075   -5.8182    0.1354   -5.9803    0.5333   -5.9853    0.5359 -504.2871  -50.9261
  9.240   -5.7547    0.5048   -6.2481    0.2576   -5.6778    0.4358   -5.7287    0.1413   -5.9137    0.5705   -5.9188    0.5731 -509.7302  -51.1134
  9.250   -5.6713    0.5454   -6.1982    0.2662   -5.5810    0.4685   -5.6322    0.1484   -5.8444    0.6128   -5.8495    0.6154 -504.1457  -51.2987
  9.260   -5.5833    0.5921   -6.1468    0.2755   -5.4767    0.5065   -5.5274    0.1572   -5.7724    0.6611   -5.7775    0.6637 -488.7149  -51.4783
  9.270   -5.4903    0.6459   -6.0937    0.2857   -5.3636    0.5509   -5.4131    0.1681   -5.6975    0.7164   -5.7026    0.7191 -465.3032  -51.6492
  9.280   -5.3921    0.7085   -6.0388    0.2968   -5.2401    0.6033   -5.2872    0.1817   -5.6199    0.7802   -5.6250    0.7828 -436.2632  -51.8096
  9.290   -5.2883    0.7814   -5.9819    0.3087   -5.1046    0.6657   -5.1476    0.1990   -5.5397    0.8541   -5.5449    0.8567 -404.2553  -51.9581
  9.300   -5.1788    0.8669   -5.9228    0.3215   -4.9549    0.7409   -4.9914    0.2213   -5.4574    0.9400   -5.4625    0.9426 -372.1070  -52.0949
  9.310   -5.0636    0.9675   -5.8614    0.3353   -4.7883    0.8327   -4.8149    0.2503   -5.3737    1.0404   -5.3789    1.0430 -342.7090  -52.2208
  9.320   -4.9429    1.0864   -5.7974    0.3499   -4.6015    0.9462   -4.6131    0.2889   -5.2900    1.1583   -5.2953    1.1608 -318.9409  -52.3380
  9.330   -4.8176    1.2275   -5.7306    0.3651   -4.3907    1.0890   -4.3798    0.3411   -5.2085    1.2971   -5.2138    1.2996 -303.6325  -52.4496
  9.340   -4.6889    1.3953   -5.6605    0.3805   -4.1511    1.2719   -4.1062    0.4137   -5.1326    1.4610   -5.1379    1.4634 -299.6261  -52.5597
  9.350   -4.5589    1.5954   -5.5866    0.3955   -3.8775    1.5115   -3.7809    0.5171   -5.0675    1.6547   -5.0728    1.6571 -310.0995  -52.6737
  9.360   -4.4306    1.8343   -5.5079    0.4086   -3.5652    1.8331   -3.3884    0.6692   -5.0208    1.8832   -5.0261    1.8857 -339.3575  -52.7984
  9.370   -4.3074    2.1206   -5.4228    0.4178   -3.2125    2.2777   -2.9086    0.9011   -5.0040    2.1519   -5.0094    2.1544 -394.1144  -52.9432
  9.380   -4.1935    2.4668   -5.3274    0.4192   -2.8294    2.9116   -2.3182    1.2697   -5.0342    2.4653   -5.0396    2.4678 -484.9517  -53.1214
  9.390   -4.0953    2.8957   -5.2138    0.4072   -2.4615    3.8437   -1.6017    1.8810   -5.1380    2.8261   -5.1436    2.8287 -627.9460  -53.3522
  9.400   -4.0327    3.4530   -5.0630    0.3753   -2.2566    5.2383   -0.7962    2.9328   -5.3600    3.2288   -5.3659    3.2317 -845.9254  -53.6631
  9.410   -4.0859    4.2187   -4.8340    0.3277   -2.6284    7.2519   -0.1480    4.7427   -5.7768    3.6351   -5.7833    3.6381 *********  -54.0896
  9.420   -4.5087    5.2295   -4.4623    0.3234   -4.4421    9.5950   -0.4640    7.4986   -6.4753    3.8921   -6.4829    3.8948 *********  -54.6712
  9.430   -5.6668    6.1139   -3.9636    0.5296   -8.1945   10.5862   -2.9273   10.1397   -7.3308    3.6849   -7.3395    3.6863 *********  -55.4969
  9.440   -7.2301    6.1227   -3.5785    1.0178  -11.7523    8.6271   -6.6532   10.4216   -7.8293    3.0010   -7.8381    3.0003 *********  -56.6589
  9.450   -8.3210    5.3920   -3.4369    1.5665  -12.9278    5.5276   -9.1002    8.7045   -7.8127    2.3569   -7.8198    2.3548 *********  -57.8015
  9.460   -8.8254    4.5677   -3.4125    2.0487  -12.5143    3.2102   -9.9759    6.8470   -7.5901    1.9800   -7.5959    1.9776 *********  -58.6377
  9.470   -9.0121    3.8931   -3.4157    2.5032  -11.6489    1.8252  -10.0949    5.5007   -7.3482    1.7985   -7.3530    1.7963 *********  -59.3418
  9.480   -9.0588    3.3728   -3.4413    2.9871  -10.7806    1.0422   -9.9707    4.6171   -7.1301    1.7379   -7.1342    1.7359 *********  -60.0297
  9.490   -9.0477    2.9695   -3.5242    3.5343  -10.0171    0.6146   -9.8151    4.0439   -6.9449    1.7669   -6.9484    1.7652 *********  -60.7218
  9.500   -9.0174    2.6495   -3.7198    4.1522   -9.3678    0.4086   -9.7083    3.6590   -6.8059    1.8737   -6.8089    1.8722 *********  -61.4096
  9.510   -8.9875    2.3846   -4.0961    4.8118   -8.8263    0.3558   -9.6774    3.3712   -6.7374    2.0464   -6.7400    2.0453 *********  -62.0757
  9.520   -8.9656    2.1499   -4.7127    5.4332   -8.3948    0.4165   -9.7202    3.1073   -6.7694    2.2580   -6.7716    2.2572 *********  -62.7054
  9.530   -8.9478    1.9246   -5.5776    5.8847   -8.0842    0.5536   -9.8065    2.8103   -6.9210    2.4580   -6.9229    2.4577 *********  -63.2913
  9.540   -8.9206    1.6973   -6.6029    6.0294   -7.9003    0.7200   -9.8830    2.4534   -7.1782    2.5824   -7.1799    2.5825 *********  -63.8325
  9.550   -8.8691    1.4704   -7.6149    5.8088   -7.8276    0.8646   -9.8955    2.0516   -7.4857    2.5845   -7.4873    2.5851 *********  -64.3317
  9.560   -8.7867    1.2568   -8.4411    5.2893   -7.8268    0.9528   -9.8187    1.6500   -7.7721    2.4632   -7.7737    2.4642 *********  -64.7916
  9.570   -8.6787    1.0692   -8.9975    4.6145   -7.8542    0.9783   -9.6639    1.2926   -7.9874    2.2574   -7.9891    2.2587 *********  -65.2134
  9.580   -8.5559    0.9131   -9.2969    3.9195   -7.8787    0.9552   -9.4619    1.0020   -8.1179    2.0162   -8.1198    2.0178 *********  -65.5970
  9.590   -8.4290    0.7873   -9.4018    3.2865   -7.8864    0.9029   -9.2425    0.7787   -8.1747    1.7765   -8.1767    1.7782 -936.9056  -65.9413
  9.600   -8.3048    0.6872   -9.3799    2.7474   -7.8750    0.8377   -9.0259    0.6123   -8.1775    1.5578   -8.1796    1.5597 -827.4611  -66.2454
  9.610   -8.1871    0.6074   -9.2840    2.3041   -7.8476    0.7696   -8.8225    0.4899   -8.1446    1.3672   -8.1469    1.3692 -717.0768  -66.5089
  9.620   -8.0772    0.5431   -9.1497    1.9452   -7.8084    0.7041   -8.6364    0.3999   -8.0902    1.2048   -8.0926    1.2070 -608.3933  -66.7325
  9.630   -7.9752    0.4907   -8.9988    1.6561   -7.7613    0.6440   -8.4682    0.3332   -8.0236    1.0678   -8.0261    1.0700 -504.3986  -66.9179
  9.640   -7.8807    0.4473   -8.8442    1.4228   -7.7094    0.5899   -8.3166    0.2831   -7.9511    0.9525   -7.9537    0.9547 -407.9487  -67.0678
  9.650   -7.7931    0.4110   -8.6926    1.2335   -7.6548    0.5418   -8.1801    0.2452   -7.8764    0.8551   -7.8791    0.8573 -321.3960  -67.1859
  9.660   -7.7116    0.3801   -8.5477    1.0790   -7.5992    0.4994   -8.0566    0.2160   -7.8018    0.7726   -7.8046    0.7748 -246.3335  -67.2764
  9.670   -7.6355    0.3536   -8.4110    0.9517   -7.5435    0.4619   -7.9444    0.1932   -7.7287    0.7023   -7.7316    0.7045 -183.4752  -67.3438
  9.680   -7.5643    0.3306   -8.2831    0.8461   -7.4884    0.4289   -7.8421    0.1752   -7.6579    0.6421   -7.6608    0.6443 -132.6775  -67.3926
  9.690   -7.4973    0.3104   -8.1637    0.7577   -7.4343    0.3997   -7.7482    0.1608   -7.5896    0.5900   -7.5925    0.5922  -93.0768  -67.4268
  9.700   -7.4342    0.2927   -8.0525    0.6832   -7.3816    0.3738   -7.6616    0.1491   -7.5241    0.5449   -7.5270    0.5471  -63.3029  -67.4501
  9.710   -7.3744    0.2769   -7.9489    0.6198   -7.3302    0.3508   -7.5814    0.1395   -7.4613    0.5055   -7.4643    0.5076  -41.7163  -67.4654
  9.720   -7.3177    0.2629   -7.8521    0.5656   -7.2804    0.3302   -7.5067    0.1315   -7.4011    0.4708   -7.4042    0.4730  -26.6250  -67.4752
  9.730   -7.2637    0.2502   -7.7617    0.5190   -7.2320    0.3119   -7.4369    0.1249   -7.3435    0.4403   -7.3466    0.4424  -16.4517  -67.4812
  9.740   -7.2121    0.2388   -7.6771    0.4785   -7.1851    0.2954   -7.3714    0.1192   -7.2883    0.4131   -7.2914    0.4153   -9.8385  -67.4848
  9.750   -7.1628    0.2285   -7.5975    0.4432   -7.1397    0.2805   -7.3097    0.1144   -7.2354    0.3890   -7.2385    0.3911   -5.6930  -67.4869
  9.760   -7.1156    0.2191   -7.5227    0.4123   -7.0957    0.2671   -7.2513    0.1103   -7.1846    0.3673   -7.1877    0.3695   -3.1868  -67.4881
  9.770   -7.0701    0.2105   -7.4521    0.3850   -7.0530    0.2549   -7.1960    0.1067   -7.1357    0.3479   -7.1388    0.3500   -1.7254  -67.4887
  9.780   -7.0264    0.2026   -7.3854    0.3609   -7.0116    0.2438   -7.1434    0.1035   -7.0887    0.3303   -7.0918    0.3324   -0.9034  -67.4891
  9.790   -6.9842    0.1954   -7.3221    0.3394   -6.9714    0.2337   -7.0932    0.1007   -7.0433    0.3144   -7.0465    0.3165   -0.4574  -67.4892
  9.800   -6.9434    0.1887   -7.2620    0.3202   -6.9323    0.2244   -7.0452    0.0983   -6.9996    0.2999   -7.0028    0.3020   -0.2239  -67.4893
  9.810   -6.9040    0.1826   -7.2048    0.3030   -6.8943    0.2159   -6.9992    0.0961   -6.9573    0.2867   -6.9605    0.2888   -0.1060  -67.4894
  9.820   -6.8658    0.1769   -7.1502    0.2875   -6.8573    0.2081   -6.9550    0.0941   -6.9164    0.2747   -6.9196    0.2768   -0.0485  -67.4894
  9.830   -6.8287    0.1715   -7.0980    0.2735   -6.8212    0.2009   -6.9125    0.0923   -6.8768    0.2636   -6.8800    0.2657   -0.0215  -67.4894
  9.840   -6.7926    0.1666   -7.0480    0.2608   -6.7861    0.1943   -6.8715    0.0907   -6.8384    0.2535   -6.8416    0.2555   -0.0092  -67.4894
  9.850   -6.7576    0.1620   -7.0000    0.2493   -6.7519    0.1881   -6.8319    0.0892   -6.8011    0.2441   -6.8042    0.2461   -0.0038  -67.4894
  9.860   -6.7234    0.1577   -6.9538    0.2387   -6.7184    0.1824   -6.7935    0.0878   -6.7648    0.2354   -6.7680    0.2375   -0.0015  -67.4894
  9.870   -6.6901    0.1537   -6.9094    0.2291   -6.6857    0.1771   -6.7564    0.0866   -6.7295    0.2274   -6.7327    0.2294   -0.0006  -67.4894
  9.880   -6.6576    0.1499   -6.8666    0.2203   -6.6538    0.1721   -6.7204    0.0854   -6.6951    0.2199   -6.6983    0.2220   -0.0002  -67.4894
  9.890   -6.6259    0.1463   -6.8252    0.2122   -6.6225    0.1675   -6.6854    0.0843   -6.6616    0.2130   -6.6648    0.2150   -0.0001  -67.4894
  9.900   -6.5948    0.1430   -6.7852    0.2047   -6.5919    0.1631   -6.6513    0.0833   -6.6289    0.2065   -6.6320    0.2085   -0.0000  -67.4894
  9.910   -6.5645    0.1398   -6.7464    0.1977   -6.5618    0.1591   -6.6181    0.0824   -6.5969    0.2005   -6.6001    0.2025   -0.0000  -67.4894
  9.920   -6.5347    0.1368   -6.7088    0.1913   -6.5324    0.1553   -6.5858    0.0815   -6.5657    0.1949   -6.5688    0.1968   -0.0000  -67.4894
  9.930   -6.5056    0.1340   -6.6723    0.1854   -6.5036    0.1517   -6.5542    0.0807   -6.5351    0.1896   -6.5383    0.1915   -0.0000  -67.4894
  9.940   -6.4770    0.1313   -6.6368    0.1799   -6.4752    0.1483   -6.5234    0.0799   -6.5052    0.1846   -6.5083    0.1866   -0.0000  -67.4894
  9.950   -6.4489    0.1288   -6.6022    0.1747   -6.4474    0.1451   -6.4932    0.0792   -6.4758    0.1799   -6.4790    0.1819   -0.0000  -67.4894
  9.960   -6.4214    0.1264   -6.5686    0.1699   -6.4201    0.1421   -6.4637    0.0785   -6.4471    0.1755   -6.4502    0.1775   -0.0000  -67.4894
  9.970   -6.3943    0.1241   -6.5358    0.1654   -6.3932    0.1393   -6.4348    0.0778   -6.4189    0.1714   -6.4220    0.1733   -0.0000  -67.4894
  9.980   -6.3677    0.1219   -6.5038    0.1612   -6.3667    0.1366   -6.4065    0.0771   -6.3912    0.1675   -6.3943    0.1694   -0.0000  -67.4894
  9.990   -6.3415    0.1199   -6.4725    0.1572   -6.3407    0.1340   -6.3787    0.0765   -6.3640    0.1638   -6.3671    0.1657   -0.0000  -67.4894
 10.000   -6.3158    0.1179   -6.4419    0.1535   -6.3151    0.1316   -6.3514    0.0759   -6.3372    0.1603   -6.3404    0.1622   -0.0000  -67.4894
