# Macroscopic dielectric function obtained with the BS equation.
#  RPA L0 with KS energies and KS wavefunctions     LOCAL FIELD EFFECTS INCLUDED
# RESONANT-ONLY calculation
# Coulomb term constructed with full W(G1,G2)
# Scissor operator energy =  0.8000 [eV]
# nstates included in the diagonalization = 96
# npweps  = 113
# npwwfn  = 259
# nbands  = 8
# loband  = 2
# nkibz   = 3
# nkbz    = 8
# Lorentzian broadening =  0.0000 [eV]
# List of q-points for the optical limit:
# q =  0.938821, 0.000000, 0.000000, [Reduced coords] 
# q =  0.000000, 0.938821, 0.000000, [Reduced coords] 
# q =  0.000000, 0.000000, 0.938821, [Reduced coords] 
# q =  0.000000, 0.813043, 0.813043, [Reduced coords] 
# q =  0.813043, 0.000000, 0.813043, [Reduced coords] 
# q =  0.813043, 0.813043, 0.000000, [Reduced coords] 
# omega [eV]    RE(eps(q=1)) IM(eps(q=1) RE(eps(q=2) ) ... DOS   IDOS
  0.000   55.7480    0.2853   55.7028    0.3546   55.7104    0.3536   55.7106    0.2673   55.8091    0.3415   55.8176    0.3500   -0.0000   -0.0000
  0.010   55.7486    0.2923   55.7033    0.3617   55.7109    0.3608   55.7111    0.2744   55.8096    0.3488   55.8181    0.3573   -0.0000   -0.0000
  0.020   55.7503    0.2992   55.7049    0.3689   55.7125    0.3679   55.7128    0.2814   55.8112    0.3562   55.8198    0.3647   -0.0000   -0.0000
  0.030   55.7531    0.3062   55.7077    0.3761   55.7153    0.3751   55.7157    0.2885   55.8140    0.3636   55.8225    0.3720   -0.0000   -0.0000
  0.040   55.7571    0.3133   55.7115    0.3833   55.7192    0.3823   55.7196    0.2956   55.8179    0.3710   55.8265    0.3794   -0.0000   -0.0000
  0.050   55.7621    0.3203   55.7165    0.3905   55.7243    0.3895   55.7247    0.3027   55.8230    0.3784   55.8315    0.3868   -0.0000   -0.0000
  0.060   55.7683    0.3273   55.7227    0.3978   55.7304    0.3968   55.7309    0.3098   55.8291    0.3858   55.8377    0.3943   -0.0000   -0.0000
  0.070   55.7757    0.3344   55.7299    0.4050   55.7377    0.4040   55.7382    0.3169   55.8364    0.3933   55.8450    0.4017   -0.0000   -0.0000
  0.080   55.7841    0.3415   55.7383    0.4124   55.7461    0.4113   55.7466    0.3241   55.8449    0.4008   55.8534    0.4092   -0.0000   -0.0000
  0.090   55.7937    0.3486   55.7478    0.4197   55.7556    0.4186   55.7562    0.3313   55.8544    0.4083   55.8630    0.4167   -0.0000   -0.0000
  0.100   55.8044    0.3558   55.7585    0.4271   55.7663    0.4260   55.7669    0.3385   55.8651    0.4159   55.8737    0.4243   -0.0000   -0.0000
  0.110   55.8163    0.3630   55.7703    0.4344   55.7781    0.4334   55.7788    0.3457   55.8770    0.4234   55.8856    0.4318   -0.0000   -0.0000
  0.120   55.8293    0.3702   55.7832    0.4419   55.7910    0.4408   55.7918    0.3530   55.8900    0.4310   55.8985    0.4394   -0.0000   -0.0000
  0.130   55.8434    0.3774   55.7972    0.4493   55.8051    0.4482   55.8059    0.3603   55.9041    0.4387   55.9127    0.4471   -0.0000   -0.0000
  0.140   55.8587    0.3846   55.8124    0.4568   55.8203    0.4557   55.8211    0.3676   55.9194    0.4463   55.9279    0.4547   -0.0000   -0.0000
  0.150   55.8751    0.3919   55.8287    0.4643   55.8366    0.4632   55.8375    0.3749   55.9358    0.4540   55.9443    0.4624   -0.0000   -0.0000
  0.160   55.8926    0.3992   55.8462    0.4719   55.8541    0.4707   55.8551    0.3823   55.9533    0.4618   55.9619    0.4701   -0.0000   -0.0000
  0.170   55.9113    0.4066   55.8648    0.4794   55.8727    0.4783   55.8738    0.3897   55.9720    0.4695   55.9806    0.4779   -0.0000   -0.0000
  0.180   55.9312    0.4139   55.8845    0.4871   55.8925    0.4859   55.8936    0.3971   55.9919    0.4773   56.0005    0.4857   -0.0000   -0.0000
  0.190   55.9522    0.4213   55.9054    0.4947   55.9134    0.4935   55.9146    0.4046   56.0129    0.4852   56.0215    0.4935   -0.0000   -0.0000
  0.200   55.9743    0.4288   55.9274    0.5024   55.9354    0.5012   55.9367    0.4121   56.0350    0.4930   56.0436    0.5014   -0.0000   -0.0000
  0.210   55.9976    0.4362   55.9506    0.5101   55.9586    0.5089   55.9600    0.4196   56.0583    0.5010   56.0670    0.5093   -0.0000   -0.0000
  0.220   56.0220    0.4438   55.9750    0.5179   55.9830    0.5167   55.9844    0.4272   56.0828    0.5089   56.0914    0.5172   -0.0000   -0.0000
  0.230   56.0477    0.4513   56.0005    0.5257   56.0085    0.5245   56.0100    0.4348   56.1085    0.5169   56.1171    0.5252   -0.0000   -0.0000
  0.240   56.0744    0.4589   56.0271    0.5336   56.0352    0.5323   56.0368    0.4424   56.1353    0.5249   56.1439    0.5332   -0.0000   -0.0000
  0.250   56.1024    0.4665   56.0550    0.5415   56.0631    0.5402   56.0647    0.4501   56.1633    0.5330   56.1719    0.5413   -0.0000   -0.0000
  0.260   56.1315    0.4742   56.0840    0.5494   56.0921    0.5481   56.0938    0.4578   56.1924    0.5411   56.2011    0.5494   -0.0000   -0.0000
  0.270   56.1618    0.4819   56.1141    0.5574   56.1223    0.5561   56.1241    0.4655   56.2228    0.5493   56.2314    0.5576   -0.0000   -0.0000
  0.280   56.1933    0.4896   56.1455    0.5654   56.1537    0.5641   56.1555    0.4733   56.2543    0.5575   56.2629    0.5658   -0.0000   -0.0000
  0.290   56.2259    0.4974   56.1780    0.5735   56.1862    0.5722   56.1882    0.4812   56.2870    0.5658   56.2956    0.5740   -0.0000   -0.0000
  0.300   56.2598    0.5052   56.2117    0.5816   56.2199    0.5803   56.2220    0.4890   56.3209    0.5741   56.3296    0.5824   -0.0000   -0.0000
  0.310   56.2948    0.5131   56.2466    0.5898   56.2549    0.5885   56.2570    0.4970   56.3560    0.5824   56.3647    0.5907   -0.0000   -0.0000
  0.320   56.3311    0.5210   56.2827    0.5980   56.2910    0.5967   56.2932    0.5049   56.3923    0.5908   56.4010    0.5991   -0.0000   -0.0000
  0.330   56.3685    0.5290   56.3200    0.6063   56.3283    0.6049   56.3306    0.5130   56.4298    0.5993   56.4385    0.6076   -0.0000   -0.0000
  0.340   56.4072    0.5370   56.3585    0.6146   56.3669    0.6132   56.3693    0.5210   56.4685    0.6078   56.4772    0.6161   -0.0000   -0.0000
  0.350   56.4470    0.5450   56.3982    0.6230   56.4066    0.6216   56.4091    0.5291   56.5084    0.6164   56.5171    0.6246   -0.0000   -0.0000
  0.360   56.4881    0.5532   56.4392    0.6314   56.4475    0.6300   56.4502    0.5373   56.5496    0.6250   56.5583    0.6332   -0.0000   -0.0000
  0.370   56.5304    0.5613   56.4813    0.6399   56.4897    0.6385   56.4924    0.5455   56.5920    0.6337   56.6007    0.6419   -0.0000   -0.0000
  0.380   56.5739    0.5696   56.5247    0.6484   56.5331    0.6471   56.5359    0.5538   56.6356    0.6424   56.6443    0.6506   -0.0000   -0.0000
  0.390   56.6187    0.5778   56.5693    0.6571   56.5777    0.6557   56.5806    0.5621   56.6804    0.6512   56.6891    0.6594   -0.0000   -0.0000
  0.400   56.6647    0.5862   56.6151    0.6657   56.6236    0.6643   56.6266    0.5705   56.7265    0.6601   56.7352    0.6683   -0.0000   -0.0000
  0.410   56.7119    0.5945   56.6622    0.6744   56.6707    0.6730   56.6738    0.5789   56.7739    0.6690   56.7826    0.6772   -0.0000   -0.0000
  0.420   56.7604    0.6030   56.7105    0.6832   56.7191    0.6818   56.7223    0.5874   56.8225    0.6780   56.8312    0.6862   -0.0000   -0.0000
  0.430   56.8102    0.6115   56.7601    0.6921   56.7687    0.6906   56.7720    0.5960   56.8723    0.6870   56.8810    0.6952   -0.0000   -0.0000
  0.440   56.8612    0.6201   56.8110    0.7010   56.8195    0.6996   56.8230    0.6046   56.9234    0.6961   56.9322    0.7043   -0.0000   -0.0000
  0.450   56.9135    0.6287   56.8631    0.7100   56.8717    0.7085   56.8753    0.6132   56.9759    0.7053   56.9846    0.7135   -0.0000   -0.0000
  0.460   56.9671    0.6374   56.9165    0.7191   56.9251    0.7176   56.9288    0.6220   57.0295    0.7146   57.0383    0.7228   -0.0000   -0.0000
  0.470   57.0219    0.6461   56.9712    0.7282   56.9798    0.7267   56.9837    0.6308   57.0845    0.7239   57.0933    0.7321   -0.0000   -0.0000
  0.480   57.0781    0.6549   57.0271    0.7374   57.0358    0.7359   57.0398    0.6396   57.1408    0.7333   57.1496    0.7415   -0.0000   -0.0000
  0.490   57.1355    0.6638   57.0844    0.7466   57.0931    0.7451   57.0972    0.6486   57.1984    0.7427   57.2072    0.7509   -0.0000   -0.0000
  0.500   57.1943    0.6728   57.1430    0.7560   57.1517    0.7545   57.1559    0.6576   57.2573    0.7523   57.2661    0.7605   -0.0000   -0.0000
  0.510   57.2544    0.6818   57.2029    0.7654   57.2117    0.7639   57.2160    0.6666   57.3175    0.7619   57.3263    0.7701   -0.0000   -0.0000
  0.520   57.3158    0.6909   57.2641    0.7749   57.2729    0.7734   57.2774    0.6758   57.3791    0.7716   57.3879    0.7798   -0.0000   -0.0000
  0.530   57.3786    0.7001   57.3266    0.7845   57.3355    0.7829   57.3401    0.6850   57.4420    0.7814   57.4508    0.7895   -0.0000   -0.0000
  0.540   57.4427    0.7093   57.3905    0.7941   57.3994    0.7926   57.4042    0.6943   57.5062    0.7912   57.5150    0.7994   -0.0000   -0.0000
  0.550   57.5081    0.7187   57.4558    0.8039   57.4647    0.8023   57.4696    0.7036   57.5718    0.8011   57.5806    0.8093   -0.0000   -0.0000
  0.560   57.5749    0.7281   57.5224    0.8137   57.5313    0.8121   57.5363    0.7131   57.6388    0.8112   57.6476    0.8193   -0.0000   -0.0000
  0.570   57.6431    0.7375   57.5903    0.8236   57.5993    0.8220   57.6045    0.7226   57.7071    0.8213   57.7160    0.8295   -0.0000   -0.0000
  0.580   57.7127    0.7471   57.6597    0.8336   57.6687    0.8320   57.6740    0.7322   57.7769    0.8315   57.7857    0.8396   -0.0000   -0.0000
  0.590   57.7837    0.7567   57.7304    0.8437   57.7394    0.8420   57.7449    0.7419   57.8480    0.8418   57.8569    0.8499   -0.0000   -0.0000
  0.600   57.8560    0.7665   57.8025    0.8538   57.8116    0.8522   57.8172    0.7517   57.9205    0.8521   57.9294    0.8603   -0.0000   -0.0000
  0.610   57.9298    0.7763   57.8761    0.8641   57.8852    0.8624   57.8910    0.7615   57.9945    0.8626   58.0034    0.8708   -0.0000   -0.0000
  0.620   58.0050    0.7862   57.9510    0.8744   57.9602    0.8728   57.9661    0.7714   58.0699    0.8732   58.0788    0.8813   -0.0000   -0.0000
  0.630   58.0816    0.7962   58.0274    0.8849   58.0366    0.8832   58.0427    0.7815   58.1467    0.8838   58.1556    0.8920   -0.0000   -0.0000
  0.640   58.1597    0.8063   58.1053    0.8954   58.1145    0.8937   58.1207    0.7916   58.2250    0.8946   58.2339    0.9028   -0.0000   -0.0000
  0.650   58.2392    0.8164   58.1845    0.9061   58.1938    0.9044   58.2002    0.8018   58.3047    0.9055   58.3136    0.9136   -0.0000   -0.0000
  0.660   58.3202    0.8267   58.2653    0.9168   58.2746    0.9151   58.2812    0.8121   58.3859    0.9164   58.3948    0.9246   -0.0000   -0.0000
  0.670   58.4027    0.8371   58.3475    0.9277   58.3568    0.9260   58.3636    0.8225   58.4686    0.9275   58.4775    0.9357   -0.0000   -0.0000
  0.680   58.4867    0.8475   58.4312    0.9386   58.4406    0.9369   58.4475    0.8330   58.5527    0.9387   58.5617    0.9468   -0.0000   -0.0000
  0.690   58.5722    0.8581   58.5164    0.9497   58.5258    0.9480   58.5330    0.8436   58.6384    0.9500   58.6474    0.9581   -0.0000   -0.0000
  0.700   58.6592    0.8688   58.6032    0.9609   58.6126    0.9591   58.6199    0.8544   58.7257    0.9614   58.7346    0.9695   -0.0000   -0.0000
  0.710   58.7477    0.8796   58.6914    0.9722   58.7009    0.9704   58.7084    0.8652   58.8144    0.9729   58.8234    0.9810   -0.0000   -0.0000
  0.720   58.8378    0.8904   58.7812    0.9835   58.7907    0.9818   58.7984    0.8761   58.9047    0.9845   58.9137    0.9927   -0.0000   -0.0000
  0.730   58.9294    0.9014   58.8725    0.9951   58.8821    0.9933   58.8900    0.8871   58.9966    0.9962   59.0056    1.0044   -0.0000   -0.0000
  0.740   59.0226    0.9125   58.9654    1.0067   58.9750    1.0049   58.9831    0.8983   59.0900    1.0081   59.0990    1.0163   -0.0000   -0.0000
  0.750   59.1174    0.9237   59.0599    1.0184   59.0695    1.0166   59.0779    0.9095   59.1850    1.0201   59.1941    1.0282   -0.0000   -0.0000
  0.760   59.2138    0.9351   59.1560    1.0303   59.1657    1.0285   59.1742    0.9209   59.2817    1.0322   59.2907    1.0404   -0.0000   -0.0000
  0.770   59.3118    0.9465   59.2537    1.0423   59.2634    1.0405   59.2722    0.9324   59.3799    1.0444   59.3890    1.0526   -0.0000   -0.0000
  0.780   59.4114    0.9581   59.3530    1.0545   59.3628    1.0526   59.3717    0.9440   59.4798    1.0568   59.4889    1.0650   -0.0000   -0.0000
  0.790   59.5127    0.9698   59.4540    1.0667   59.4638    1.0649   59.4730    0.9557   59.5814    1.0693   59.5905    1.0775   -0.0000   -0.0000
  0.800   59.6156    0.9816   59.5566    1.0791   59.5664    1.0772   59.5758    0.9676   59.6846    1.0820   59.6937    1.0901   -0.0000   -0.0000
  0.810   59.7202    0.9936   59.6609    1.0916   59.6708    1.0898   59.6804    0.9796   59.7895    1.0947   59.7986    1.1029   -0.0000   -0.0000
  0.820   59.8266    1.0056   59.7669    1.1043   59.7768    1.1024   59.7867    0.9917   59.8961    1.1076   59.9052    1.1158   -0.0000   -0.0000
  0.830   59.9346    1.0178   59.8746    1.1171   59.8845    1.1152   59.8946    1.0039   60.0044    1.1207   60.0135    1.1289   -0.0000   -0.0000
  0.840   60.0443    1.0302   59.9840    1.1301   59.9940    1.1282   60.0043    1.0163   60.1144    1.1339   60.1236    1.1421   -0.0000   -0.0000
  0.850   60.1558    1.0427   60.0952    1.1432   60.1052    1.1412   60.1158    1.0288   60.2262    1.1473   60.2354    1.1554   -0.0000   -0.0000
  0.860   60.2691    1.0553   60.2081    1.1564   60.2181    1.1545   60.2290    1.0415   60.3398    1.1608   60.3490    1.1689   -0.0000   -0.0000
  0.870   60.3842    1.0681   60.3228    1.1698   60.3329    1.1679   60.3440    1.0543   60.4552    1.1744   60.4644    1.1826   -0.0000   -0.0000
  0.880   60.5010    1.0810   60.4393    1.1833   60.4494    1.1814   60.4607    1.0673   60.5723    1.1883   60.5816    1.1964   -0.0000   -0.0000
  0.890   60.6197    1.0941   60.5576    1.1971   60.5677    1.1951   60.5794    1.0804   60.6913    1.2022   60.7006    1.2104   -0.0000   -0.0000
  0.900   60.7402    1.1073   60.6777    1.2109   60.6879    1.2090   60.6998    1.0936   60.8122    1.2164   60.8214    1.2245   -0.0000   -0.0000
  0.910   60.8626    1.1207   60.7997    1.2250   60.8100    1.2230   60.8221    1.1070   60.9349    1.2307   60.9442    1.2389   -0.0000   -0.0000
  0.920   60.9868    1.1342   60.9236    1.2392   60.9339    1.2372   60.9463    1.1206   61.0595    1.2452   61.0688    1.2533   -0.0000   -0.0000
  0.930   61.1130    1.1479   61.0493    1.2536   61.0597    1.2516   61.0724    1.1343   61.1860    1.2598   61.1953    1.2680   -0.0000   -0.0000
  0.940   61.2411    1.1617   61.1770    1.2681   61.1874    1.2661   61.2004    1.1482   61.3145    1.2747   61.3238    1.2829   -0.0000   -0.0000
  0.950   61.3711    1.1758   61.3067    1.2828   61.3171    1.2808   61.3304    1.1623   61.4448    1.2897   61.4542    1.2979   -0.0000   -0.0000
  0.960   61.5031    1.1900   61.4382    1.2978   61.4488    1.2957   61.4623    1.1766   61.5772    1.3049   61.5866    1.3131   -0.0000   -0.0000
  0.970   61.6371    1.2044   61.5718    1.3129   61.5824    1.3108   61.5963    1.1910   61.7116    1.3203   61.7210    1.3285   -0.0000   -0.0000
  0.980   61.7731    1.2189   61.7074    1.3281   61.7180    1.3261   61.7322    1.2056   61.8480    1.3359   61.8574    1.3441   -0.0000   -0.0000
  0.990   61.9112    1.2337   61.8450    1.3436   61.8557    1.3416   61.8702    1.2204   61.9864    1.3517   61.9959    1.3599   -0.0000   -0.0000
  1.000   62.0513    1.2486   61.9847    1.3593   61.9954    1.3572   62.0102    1.2353   62.1269    1.3677   62.1364    1.3758   -0.0000   -0.0000
  1.010   62.1935    1.2637   62.1265    1.3752   62.1372    1.3731   62.1524    1.2505   62.2695    1.3839   62.2790    1.3920   -0.0000   -0.0000
  1.020   62.3378    1.2790   62.2703    1.3913   62.2811    1.3892   62.2966    1.2658   62.4143    1.4003   62.4238    1.4084   -0.0000   -0.0000
  1.030   62.4843    1.2946   62.4163    1.4076   62.4272    1.4055   62.4430    1.2814   62.5612    1.4169   62.5707    1.4251   -0.0000   -0.0000
  1.040   62.6329    1.3103   62.5645    1.4241   62.5754    1.4220   62.5916    1.2972   62.7102    1.4337   62.7197    1.4419   -0.0000   -0.0000
  1.050   62.7837    1.3262   62.7148    1.4408   62.7258    1.4387   62.7423    1.3131   62.8615    1.4508   62.8710    1.4590   -0.0000   -0.0000
  1.060   62.9368    1.3423   62.8674    1.4577   62.8784    1.4556   62.8953    1.3293   63.0150    1.4681   63.0245    1.4762   -0.0000   -0.0000
  1.070   63.0921    1.3587   63.0222    1.4749   63.0332    1.4728   63.0505    1.3457   63.1707    1.4856   63.1803    1.4938   -0.0000   -0.0000
  1.080   63.2496    1.3753   63.1792    1.4923   63.1904    1.4902   63.2080    1.3623   63.3287    1.5033   63.3383    1.5115   -0.0000   -0.0000
  1.090   63.4095    1.3921   63.3386    1.5100   63.3498    1.5078   63.3678    1.3792   63.4891    1.5213   63.4987    1.5295   -0.0000   -0.0000
  1.100   63.5717    1.4091   63.5003    1.5279   63.5116    1.5257   63.5300    1.3963   63.6518    1.5396   63.6614    1.5478   -0.0000   -0.0000
  1.110   63.7363    1.4264   63.6644    1.5460   63.6757    1.5438   63.6945    1.4136   63.8169    1.5581   63.8265    1.5663   -0.0000   -0.0000
  1.120   63.9033    1.4439   63.8308    1.5644   63.8422    1.5622   63.8614    1.4311   63.9843    1.5768   63.9941    1.5850   -0.0000   -0.0000
  1.130   64.0728    1.4616   63.9997    1.5831   64.0111    1.5809   64.0308    1.4489   64.1543    1.5959   64.1640    1.6040   -0.0000   -0.0000
  1.140   64.2447    1.4796   64.1711    1.6020   64.1826    1.5998   64.2026    1.4670   64.3267    1.6151   64.3365    1.6233   -0.0000   -0.0000
  1.150   64.4191    1.4979   64.3449    1.6212   64.3565    1.6189   64.3769    1.4853   64.5016    1.6347   64.5114    1.6429   -0.0000   -0.0000
  1.160   64.5960    1.5164   64.5213    1.6406   64.5329    1.6384   64.5538    1.5039   64.6791    1.6546   64.6889    1.6628   -0.0000   -0.0000
  1.170   64.7755    1.5352   64.7002    1.6604   64.7119    1.6581   64.7332    1.5227   64.8592    1.6747   64.8690    1.6829   -0.0000   -0.0000
  1.180   64.9576    1.5543   64.8818    1.6804   64.8935    1.6781   64.9153    1.5418   65.0418    1.6951   65.0517    1.7033   -0.0000   -0.0000
  1.190   65.1424    1.5736   65.0659    1.7007   65.0777    1.6985   65.1000    1.5612   65.2272    1.7159   65.2371    1.7241   -0.0000   -0.0000
  1.200   65.3299    1.5933   65.2528    1.7213   65.2646    1.7191   65.2874    1.5809   65.4152    1.7369   65.4251    1.7451   -0.0000   -0.0000
  1.210   65.5201    1.6132   65.4423    1.7423   65.4542    1.7400   65.4775    1.6009   65.6060    1.7582   65.6159    1.7664   -0.0000   -0.0000
  1.220   65.7130    1.6334   65.6346    1.7635   65.6466    1.7612   65.6703    1.6212   65.7995    1.7799   65.8095    1.7881   -0.0000   -0.0000
  1.230   65.9087    1.6539   65.8297    1.7851   65.8418    1.7828   65.8660    1.6418   65.9958    1.8019   66.0058    1.8101   -0.0000   -0.0000
  1.240   66.1073    1.6748   66.0277    1.8070   66.0398    1.8047   66.0645    1.6627   66.1950    1.8242   66.2051    1.8325   -0.0000   -0.0000
  1.250   66.3088    1.6959   66.2285    1.8292   66.2407    1.8269   66.2660    1.6839   66.3972    1.8469   66.4072    1.8551   -0.0000   -0.0000
  1.260   66.5132    1.7174   66.4322    1.8518   66.4445    1.8494   66.4703    1.7054   66.6022    1.8699   66.6123    1.8782   -0.0000   -0.0000
  1.270   66.7206    1.7393   66.6390    1.8747   66.6513    1.8724   66.6776    1.7273   66.8103    1.8933   66.8204    1.9016   -0.0000   -0.0000
  1.280   66.9311    1.7614   66.8487    1.8980   66.8610    1.8956   66.8880    1.7495   67.0213    1.9171   67.0315    1.9253   -0.0000   -0.0000
  1.290   67.1445    1.7839   67.0614    1.9216   67.0739    1.9193   67.1014    1.7721   67.2355    1.9412   67.2457    1.9494   -0.0000   -0.0000
  1.300   67.3611    1.8068   67.2773    1.9456   67.2898    1.9433   67.3179    1.7951   67.4528    1.9657   67.4630    1.9740   -0.0000   -0.0000
  1.310   67.5809    1.8301   67.4964    1.9701   67.5090    1.9677   67.5376    1.8184   67.6733    1.9906   67.6835    1.9989   -0.0000   -0.0000
  1.320   67.8039    1.8537   67.7186    1.9949   67.7313    1.9925   67.7605    1.8421   67.8970    2.0160   67.9073    2.0242   -0.0000   -0.0000
  1.330   68.0302    1.8777   67.9441    2.0201   67.9568    2.0177   67.9867    1.8661   68.1240    2.0417   68.1343    2.0499   -0.0000   -0.0000
  1.340   68.2598    1.9021   68.1729    2.0457   68.1857    2.0433   68.2162    1.8906   68.3543    2.0678   68.3647    2.0761   -0.0000   -0.0000
  1.350   68.4927    1.9269   68.4051    2.0717   68.4180    2.0693   68.4491    1.9155   68.5880    2.0944   68.5984    2.1026   -0.0000   -0.0000
  1.360   68.7291    1.9521   68.6407    2.0982   68.6536    2.0958   68.6855    1.9408   68.8252    2.1214   68.8356    2.1297   -0.0000   -0.0000
  1.370   68.9690    1.9777   68.8797    2.1251   68.8928    2.1227   68.9253    1.9665   69.0658    2.1489   69.0763    2.1571   -0.0000   -0.0000
  1.380   69.2124    2.0038   69.1223    2.1525   69.1355    2.1501   69.1686    1.9927   69.3100    2.1768   69.3206    2.1851   -0.0000   -0.0000
  1.390   69.4595    2.0303   69.3685    2.1803   69.3817    2.1779   69.4156    2.0193   69.5579    2.2053   69.5685    2.2135   -0.0000   -0.0000
  1.400   69.7102    2.0573   69.6184    2.2086   69.6316    2.2062   69.6663    2.0463   69.8094    2.2342   69.8200    2.2424   -0.0000   -0.0000
  1.410   69.9646    2.0847   69.8719    2.2374   69.8853    2.2350   69.9206    2.0738   70.0647    2.2636   70.0754    2.2718   -0.0000   -0.0000
  1.420   70.2229    2.1126   70.1293    2.2667   70.1427    2.2643   70.1788    2.1018   70.3238    2.2935   70.3345    2.3017   -0.0000   -0.0000
  1.430   70.4850    2.1411   70.3904    2.2965   70.4040    2.2941   70.4409    2.1303   70.5868    2.3239   70.5975    2.3321   -0.0000   -0.0000
  1.440   70.7510    2.1700   70.6555    2.3269   70.6692    2.3244   70.7068    2.1593   70.8537    2.3549   70.8645    2.3631   -0.0000   -0.0000
  1.450   71.0210    2.1994   70.9246    2.3577   70.9383    2.3553   70.9768    2.1888   71.1246    2.3864   71.1355    2.3946   -0.0000   -0.0000
  1.460   71.2951    2.2293   71.1978    2.3892   71.2115    2.3867   71.2508    2.2189   71.3997    2.4185   71.4105    2.4267   -0.0000   -0.0000
  1.470   71.5734    2.2598   71.4750    2.4212   71.4889    2.4187   71.5290    2.2495   71.6788    2.4512   71.6898    2.4594   -0.0000   -0.0000
  1.480   71.8558    2.2909   71.7565    2.4537   71.7704    2.4512   71.8114    2.2806   71.9623    2.4844   71.9732    2.4926   -0.0000   -0.0000
  1.490   72.1426    2.3225   72.0422    2.4869   72.0563    2.4844   72.0981    2.3124   72.2500    2.5183   72.2610    2.5265   -0.0000   -0.0000
  1.500   72.4337    2.3547   72.3323    2.5207   72.3464    2.5182   72.3892    2.3447   72.5422    2.5528   72.5532    2.5610   -0.0000   -0.0000
  1.510   72.7293    2.3875   72.6268    2.5551   72.6411    2.5526   72.6848    2.3776   72.8388    2.5880   72.8499    2.5962   -0.0000   -0.0000
  1.520   73.0295    2.4209   72.9259    2.5901   72.9402    2.5876   72.9849    2.4111   73.1399    2.6238   73.1511    2.6320   -0.0000   -0.0000
  1.530   73.3342    2.4549   73.2295    2.6258   73.2440    2.6233   73.2896    2.4453   73.4458    2.6602   73.4570    2.6684   -0.0000   -0.0000
  1.540   73.6437    2.4896   73.5379    2.6622   73.5524    2.6597   73.5990    2.4801   73.7563    2.6974   73.7676    2.7056   -0.0000   -0.0000
  1.550   73.9580    2.5250   73.8510    2.6993   73.8656    2.6968   73.9133    2.5156   74.0717    2.7353   74.0830    2.7435   -0.0000   -0.0000
  1.560   74.2772    2.5611   74.1690    2.7371   74.1838    2.7345   74.2324    2.5518   74.3920    2.7739   74.4034    2.7821   -0.0000   -0.0000
  1.570   74.6013    2.5978   74.4920    2.7756   74.5068    2.7731   74.5566    2.5887   74.7173    2.8133   74.7288    2.8215   -0.0000   -0.0000
  1.580   74.9306    2.6353   74.8201    2.8149   74.8350    2.8124   74.8858    2.6263   75.0478    2.8535   75.0593    2.8616   -0.0000   -0.0000
  1.590   75.2651    2.6735   75.1533    2.8550   75.1683    2.8524   75.2202    2.6647   75.3834    2.8944   75.3950    2.9026   -0.0000   -0.0000
  1.600   75.6048    2.7125   75.4918    2.8958   75.5069    2.8933   75.5600    2.7038   75.7244    2.9362   75.7360    2.9443   -0.0000   -0.0000
  1.610   75.9500    2.7523   75.8356    2.9375   75.8509    2.9349   75.9051    2.7438   76.0708    2.9788   76.0825    2.9869   -0.0000   -0.0000
  1.620   76.3007    2.7928   76.1850    2.9800   76.2003    2.9774   76.2558    2.7845   76.4228    3.0222   76.4345    3.0304   -0.0000   -0.0000
  1.630   76.6570    2.8343   76.5399    3.0234   76.5554    3.0208   76.6121    2.8261   76.7804    3.0666   76.7922    3.0747   -0.0000   -0.0000
  1.640   77.0190    2.8765   76.9006    3.0676   76.9162    3.0651   76.9741    2.8685   77.1437    3.1119   77.1556    3.1200   -0.0000   -0.0000
  1.650   77.3869    2.9197   77.2671    3.1128   77.2828    3.1103   77.3420    2.9118   77.5130    3.1581   77.5250    3.1662   -0.0000   -0.0000
  1.660   77.7608    2.9637   77.6396    3.1589   77.6553    3.1564   77.7159    2.9561   77.8883    3.2052   77.9003    3.2133   -0.0000   -0.0000
  1.670   78.1409    3.0087   78.0181    3.2060   78.0340    3.2035   78.0959    3.0012   78.2697    3.2534   78.2818    3.2615   -0.0000   -0.0000
  1.680   78.5271    3.0546   78.4029    3.2541   78.4189    3.2516   78.4822    3.0474   78.6574    3.3026   78.6696    3.3107   -0.0000   -0.0000
  1.690   78.9197    3.1015   78.7940    3.3033   78.8101    3.3007   78.8748    3.0945   79.0515    3.3528   79.0637    3.3609   -0.0000   -0.0000
  1.700   79.3189    3.1495   79.1915    3.3534   79.2078    3.3509   79.2740    3.1427   79.4521    3.4042   79.4645    3.4122   -0.0000   -0.0000
  1.710   79.7247    3.1985   79.5958    3.4047   79.6121    3.4022   79.6799    3.1919   79.8595    3.4566   79.8719    3.4647   -0.0000   -0.0000
  1.720   80.1373    3.2485   80.0067    3.4571   80.0233    3.4545   80.0925    3.2422   80.2737    3.5103   80.2862    3.5183   -0.0000   -0.0000
  1.730   80.5569    3.2997   80.4247    3.5106   80.4413    3.5081   80.5122    3.2936   80.6949    3.5651   80.7075    3.5731   -0.0000   -0.0000
  1.740   80.9836    3.3521   80.8496    3.5654   80.8664    3.5628   80.9389    3.3462   81.1232    3.6211   81.1359    3.6291   -0.0000   -0.0000
  1.750   81.4176    3.4056   81.2819    3.6214   81.2988    3.6188   81.3729    3.3999   81.5589    3.6784   81.5716    3.6863   -0.0000   -0.0000
  1.760   81.8591    3.4603   81.7215    3.6786   81.7385    3.6761   81.8144    3.4549   82.0020    3.7370   82.0149    3.7449   -0.0000   -0.0000
  1.770   82.3081    3.5163   82.1687    3.7371   82.1859    3.7346   82.2636    3.5112   82.4528    3.7969   82.4657    3.8048   -0.0000   -0.0000
  1.780   82.7650    3.5736   82.6237    3.7970   82.6410    3.7945   82.7205    3.5688   82.9114    3.8582   82.9245    3.8661   -0.0000   -0.0000
  1.790   83.2298    3.6322   83.0866    3.8583   83.1040    3.8558   83.1854    3.6277   83.3781    3.9210   83.3912    3.9289   -0.0000   -0.0000
  1.800   83.7028    3.6922   83.5576    3.9210   83.5752    3.9185   83.6585    3.6880   83.8529    3.9852   83.8662    3.9931   -0.0000   -0.0000
  1.810   84.1841    3.7536   84.0370    3.9852   84.0547    3.9827   84.1399    3.7497   84.3362    4.0510   84.3495    4.0588   -0.0000   -0.0000
  1.820   84.6741    3.8165   84.5248    4.0510   84.5427    4.0485   84.6300    3.8130   84.8281    4.1183   84.8415    4.1261   -0.0000   -0.0000
  1.830   85.1728    3.8810   85.0214    4.1183   85.0394    4.1158   85.1288    3.8778   85.3288    4.1873   85.3423    4.1951   -0.0000   -0.0000
  1.840   85.6805    3.9470   85.5270    4.1872   85.5451    4.1848   85.6366    3.9441   85.8385    4.2579   85.8522    4.2657   -0.0000   -0.0000
  1.850   86.1974    4.0146   86.0417    4.2579   86.0600    4.2554   86.1537    4.0121   86.3575    4.3303   86.3713    4.3380   -0.0000   -0.0000
  1.860   86.7238    4.0839   86.5657    4.3303   86.5842    4.3278   86.6802    4.0818   86.8860    4.4045   86.8999    4.4122   -0.0000   -0.0000
  1.870   87.2598    4.1550   87.0994    4.4045   87.1181    4.4020   87.2164    4.1533   87.4243    4.4805   87.4383    4.4882   -0.0000   -0.0000
  1.880   87.8058    4.2279   87.6430    4.4805   87.6618    4.4781   87.7626    4.2266   87.9725    4.5585   87.9866    4.5661   -0.0000   -0.0000
  1.890   88.3619    4.3026   88.1967    4.5585   88.2157    4.5561   88.3190    4.3018   88.5310    4.6385   88.5452    4.6461   -0.0000   -0.0000
  1.900   88.9286    4.3793   88.7609    4.6385   88.7800    4.6361   88.8858    4.3789   89.0999    4.7205   89.1143    4.7280   -0.0000   -0.0000
  1.910   89.5059    4.4579   89.3356    4.7206   89.3549    4.7182   89.4634    4.4580   89.6797    4.8046   89.6942    4.8122   -0.0000   -0.0000
  1.920   90.0943    4.5387   89.9213    4.8048   89.9408    4.8025   90.0520    4.5392   90.2705    4.8910   90.2852    4.8985   -0.0000   -0.0000
  1.930   90.6940    4.6215   90.5183    4.8913   90.5379    4.8889   90.6519    4.6226   90.8727    4.9797   90.8876    4.9871   -0.0000   -0.0000
  1.940   91.3052    4.7066   91.1268    4.9800   91.1466    4.9777   91.2635    4.7082   91.4866    5.0707   91.5016    5.0781   -0.0000   -0.0000
  1.950   91.9285    4.7941   91.7471    5.0712   91.7672    5.0688   91.8870    4.7962   92.1125    5.1642   92.1276    5.1716   -0.0000   -0.0000
  1.960   92.5639    4.8839   92.3797    5.1648   92.3999    5.1625   92.5228    4.8866   92.7507    5.2603   92.7660    5.2676   -0.0000   -0.0000
  1.970   93.2120    4.9762   93.0247    5.2609   93.0451    5.2587   93.1712    4.9795   93.4016    5.3590   93.4170    5.3662   -0.0000   -0.0000
  1.980   93.8730    5.0710   93.6826    5.3598   93.7032    5.3576   93.8326    5.0749   94.0655    5.4604   94.0811    5.4676   -0.0000   -0.0000
  1.990   94.5474    5.1686   94.3538    5.4614   94.3746    5.4592   94.5073    5.1731   94.7428    5.5648   94.7586    5.5719   -0.0000   -0.0000
  2.000   95.2355    5.2689   95.0386    5.5659   95.0596    5.5637   95.1958    5.2741   95.4339    5.6720   95.4498    5.6791   -0.0000   -0.0000
  2.010   95.9376    5.3721   95.7374    5.6734   95.7586    5.6712   95.8984    5.3780   96.1391    5.7824   96.1553    5.7894   -0.0000   -0.0000
  2.020   96.6543    5.4783   96.4506    5.7840   96.4720    5.7819   96.6155    5.4850   96.8590    5.8960   96.8753    5.9029   -0.0000   -0.0000
  2.030   97.3860    5.5876   97.1786    5.8978   97.2002    5.8957   97.3476    5.5951   97.5939    6.0129   97.6104    6.0198   -0.0000   -0.0000
  2.040   98.1330    5.7002   97.9220    6.0150   97.9438    6.0129   98.0952    5.7085   98.3443    6.1333   98.3610    6.1401   -0.0000   -0.0000
  2.050   98.8959    5.8162   98.6810    6.1356   98.7031    6.1336   98.8586    5.8253   99.1106    6.2572   99.1275    6.2640   -0.0000   -0.0000
  2.060   99.6751    5.9357   99.4563    6.2599   99.4786    6.2580   99.6384    5.9456   99.8934    6.3850   99.9105    6.3917   -0.0000   -0.0000
  2.070  100.4712    6.0588  100.2484    6.3880  100.2709    6.3861  100.4351    6.0697  100.6931    6.5166  100.7105    6.5232   -0.0000   -0.0000
  2.080  101.2846    6.1858  101.0577    6.5201  101.0804    6.5182  101.2491    6.1976  101.5103    6.6524  101.5279    6.6589   -0.0000   -0.0000
  2.090  102.1160    6.3168  101.8848    6.6562  101.9077    6.6544  102.0812    6.3296  102.3455    6.7924  102.3633    6.7988   -0.0000   -0.0000
  2.100  102.9659    6.4519  102.7302    6.7966  102.7534    6.7949  102.9318    6.4657  103.1993    6.9368  103.2174    6.9431   -0.0000   -0.0000
  2.110  103.8348    6.5913  103.5946    6.9415  103.6180    6.9398  103.8015    6.6063  104.0723    7.0858  104.0907    7.0920   -0.0000   -0.0000
  2.120  104.7235    6.7353  104.4785    7.0911  104.5023    7.0895  104.6909    6.7514  104.9652    7.2397  104.9838    7.2458   -0.0000   -0.0000
  2.130  105.6325    6.8840  105.3827    7.2456  105.4067    7.2440  105.6008    6.9013  105.8785    7.3986  105.8974    7.4046   -0.0000   -0.0000
  2.140  106.5626    7.0376  106.3077    7.4051  106.3320    7.4036  106.5318    7.0562  106.8130    7.5628  106.8321    7.5687   -0.0000   -0.0000
  2.150  107.5144    7.1965  107.2543    7.5700  107.2789    7.5685  107.4845    7.2163  107.7694    7.7325  107.7888    7.7383   -0.0000   -0.0000
  2.160  108.4887    7.3607  108.2233    7.7404  108.2481    7.7390  108.4598    7.3819  108.7484    7.9080  108.7681    7.9136   -0.0000   -0.0000
  2.170  109.4863    7.5305  109.2153    7.9167  109.2404    7.9154  109.4585    7.5532  109.7508    8.0895  109.7708    8.0950   -0.0000   -0.0000
  2.180  110.5079    7.7063  110.2312    8.0990  110.2566    8.0978  110.4812    7.7305  110.7775    8.2773  110.7978    8.2827   -0.0000   -0.0000
  2.190  111.5545    7.8883  111.2718    8.2878  111.2975    8.2866  111.5290    7.9141  111.8292    8.4717  111.8499    8.4770   -0.0000   -0.0000
  2.200  112.6270    8.0768  112.3381    8.4832  112.3641    8.4821  112.6027    8.1042  112.9069    8.6731  112.9280    8.6782   -0.0000   -0.0000
  2.210  113.7262    8.2721  113.4309    8.6856  113.4572    8.6847  113.7032    8.3013  114.0116    8.8817  114.0330    8.8867   -0.0000   -0.0000
  2.220  114.8531    8.4745  114.5512    8.8955  114.5778    8.8946  114.8315    8.5056  115.1441    9.0980  115.1659    9.1028   -0.0000   -0.0000
  2.230  116.0088    8.6845  115.7000    9.1130  115.7270    9.1123  115.9887    8.7175  116.3056    9.3223  116.3278    9.3269   -0.0000   -0.0000
  2.240  117.1944    8.9024  116.8785    9.3387  116.9058    9.3380  117.1758    8.9374  117.4972    9.5550  117.5198    9.5594   -0.0000   -0.0000
  2.250  118.4110    9.1285  118.0876    9.5729  118.1153    9.5724  118.3940    9.1657  118.7200    9.7966  118.7430    9.8008   -0.0000   -0.0000
  2.260  119.6597    9.3635  119.3287    9.8160  119.3567    9.8157  119.6445    9.4029  119.9751   10.0475  119.9986   10.0515   -0.0000   -0.0000
  2.270  120.9419    9.6076  120.6029   10.0687  120.6313   10.0684  120.9286    9.6494  121.2639   10.3082  121.2879   10.3121   -0.0000   -0.0000
  2.280  122.2589    9.8614  121.9116   10.3313  121.9404   10.3311  122.2475    9.9057  122.5877   10.5793  122.6122   10.5829   -0.0000   -0.0000
  2.290  123.6121   10.1254  123.2562   10.6043  123.2853   10.6044  123.6027   10.1724  123.9479   10.8613  123.9729   10.8646   -0.0000   -0.0000
  2.300  125.0029   10.4002  124.6380   10.8885  124.6675   10.8887  124.9957   10.4500  125.3460   11.1547  125.3715   11.1579   -0.0000   -0.0000
  2.310  126.4329   10.6864  126.0586   11.1843  126.0886   11.1846  126.4280   10.7392  126.7835   11.4603  126.8096   11.4632   -0.0000   -0.0000
  2.320  127.9038   10.9846  127.5197   11.4924  127.5501   11.4930  127.9012   11.0405  128.2621   11.7788  128.2888   11.7814   -0.0000   -0.0000
  2.330  129.4172   11.2955  129.0229   11.8136  129.0537   11.8143  129.4172   11.3547  129.7836   12.1108  129.8109   12.1131   -0.0000   -0.0000
  2.340  130.9750   11.6199  130.5701   12.1486  130.6014   12.1495  130.9777   11.6826  131.3498   12.4571  131.3777   12.4592   -0.0000   -0.0000
  2.350  132.5792   11.9585  132.1632   12.4983  132.1949   12.4993  132.5848   12.0250  132.9625   12.8187  132.9912   12.8205   -0.0000   -0.0000
  2.360  134.2318   12.3123  133.8042   12.8633  133.8363   12.8647  134.2403   12.3827  134.6240   13.1964  134.6533   13.1978   -0.0000   -0.0000
  2.370  135.9349   12.6820  135.4952   13.2449  135.5278   13.2464  135.9467   12.7566  136.3363   13.5912  136.3664   13.5923   -0.0000   -0.0000
  2.380  137.6909   13.0689  137.2385   13.6438  137.2716   13.6456  137.7061   13.1479  138.1019   14.0042  138.1328   14.0049   -0.0000   -0.0000
  2.390  139.5022   13.4738  139.0365   14.0613  139.0702   14.0633  139.5210   13.5575  139.9231   14.4365  139.9548   14.4369   -0.0000   -0.0000
  2.400  141.3714   13.8980  140.8918   14.4985  140.9260   14.5008  141.3940   13.9867  141.8026   14.8894  141.8352   14.8893   -0.0000   -0.0000
  2.410  143.3014   14.3427  142.8071   14.9566  142.8418   14.9592  143.3279   14.4367  143.7431   15.3641  143.7767   15.3637   -0.0000   -0.0000
  2.420  145.2949   14.8092  144.7853   15.4371  144.8206   15.4401  145.3258   14.9090  145.7477   15.8622  145.7822   15.8613   -0.0000   -0.0000
  2.430  147.3552   15.2991  146.8295   15.9415  146.8654   15.9448  147.3906   15.4049  147.8194   16.3852  147.8550   16.3839   -0.0000   -0.0000
  2.440  149.4856   15.8140  148.9429   16.4714  148.9794   16.4750  149.5258   15.9262  149.9617   16.9349  149.9983   16.9330   -0.0000   -0.0000
  2.450  151.6897   16.3555  151.1291   17.0285  151.1663   17.0325  151.7350   16.4747  152.1780   17.5130  152.2158   17.5106   -0.0000   -0.0000
  2.460  153.9712   16.9256  153.3919   17.6148  153.4297   17.6191  154.0220   17.0522  154.4723   18.1216  154.5113   18.1187   -0.0000   -0.0000
  2.470  156.3343   17.5264  155.7352   18.2323  155.7736   18.2371  156.3908   17.6608  156.8486   18.7629  156.8889   18.7594   -0.0000   -0.0000
  2.480  158.7833   18.1600  158.1632   18.8834  158.2024   18.8886  158.8460   18.3029  159.3113   19.4393  159.3530   19.4352   -0.0000   -0.0000
  2.490  161.3228   18.8290  160.6807   19.5705  160.7206   19.5762  161.3921   18.9809  161.8651   20.1534  161.9083   20.1488   -0.0000   -0.0000
  2.500  163.9580   19.5360  163.2925   20.2963  163.3331   20.3026  164.0342   19.6977  164.5150   20.9082  164.5598   20.9029   -0.0000   -0.0000
  2.510  166.6941   20.2841  166.0039   21.0640  166.0453   21.0708  166.7777   20.4562  167.2665   21.7068  167.3129   21.7007   -0.0000   -0.0000
  2.520  169.5371   21.0764  168.8206   21.8767  168.8628   21.8841  169.6285   21.2598  170.1253   22.5526  170.1735   22.5458   -0.0000   -0.0000
  2.530  172.4930   21.9166  171.7487   22.7382  171.7917   22.7462  172.5928   22.1121  173.0977   23.4496  173.1478   23.4420   -0.0000   -0.0000
  2.540  175.5687   22.8086  174.7947   23.6523  174.8387   23.6610  175.6775   23.0172  176.1905   24.4019  176.2426   24.3935   -0.0000   -0.0000
  2.550  178.7713   23.7569  177.9659   24.6236  178.0107   24.6330  178.8896   23.9795  179.4108   25.4142  179.4651   25.4049   -0.0000   -0.0000
  2.560  182.1088   24.7662  181.2698   25.6569  181.3156   25.6671  182.2373   25.0041  182.7666   26.4917  182.8233   26.4815   -0.0000   -0.0000
  2.570  185.5896   25.8419  184.7148   26.7576  184.7615   26.7687  185.7290   26.0964  186.2664   27.6402  186.3255   27.6290   -0.0000   -0.0000
  2.580  189.2229   26.9900  188.3098   27.9319  188.3576   27.9439  189.3739   27.2625  189.9192   28.8660  189.9811   28.8539   -0.0000   -0.0000
  2.590  193.0187   28.2173  192.0646   29.1863  192.1135   29.1993  193.1821   28.5093  193.7352   30.1764  193.8000   30.1631   -0.0000   -0.0000
  2.600  196.9878   29.5311  195.9898   30.5286  196.0398   30.5427  197.1645   29.8444  197.7252   31.5792  197.7932   31.5648   -0.0000   -0.0000
  2.610  201.1421   30.9399  200.0969   31.9670  200.1481   31.9822  201.3329   31.2765  201.9008   33.0835  201.9722   33.0679   -0.0000   -0.0000
  2.620  205.4944   32.4531  204.3984   33.5110  204.4508   33.5275  205.7004   32.8150  206.2750   34.6993  206.3501   34.6824   -0.0000   -0.0000
  2.630  210.0587   34.0812  208.9081   35.1714  208.9617   35.1893  210.2809   34.4709  210.8617   36.4379  210.9409   36.4197   -0.0000   -0.0000
  2.640  214.8503   35.8363  213.6407   36.9600  213.6957   36.9794  215.0899   36.2564  215.6762   38.3122  215.7598   38.2926   -0.0001   -0.0000
  2.650  219.8862   37.7318  218.6127   38.8905  218.6691   38.9115  220.1443   38.1854  220.7351   40.3365  220.8235   40.3155   -0.0001   -0.0000
  2.660  225.1846   39.7832  223.8419   40.9784  223.8998   41.0012  225.4627   40.2738  226.0568   42.5275  226.1504   42.5049   -0.0003   -0.0000
  2.670  230.7658   42.0081  229.3480   43.2412  229.4074   43.2660  231.0652   42.5395  231.6611   44.9039  231.7605   44.8797   -0.0006   -0.0000
  2.680  236.6521   44.4266  235.1525   45.6991  235.2134   45.7260  236.9742   45.0031  237.5702   47.4872  237.6759   47.4613   -0.0014   -0.0000
  2.690  242.8679   47.0618  241.2789   48.3751  241.3416   48.4043  243.2143   47.6884  243.8081   50.3020  243.9208   50.2745   -0.0028   -0.0000
  2.700  249.4401   49.9402  247.7535   51.2958  247.8179   51.3276  249.8125   50.6227  250.4013   53.3769  250.5217   53.3476   -0.0059   -0.0000
  2.710  256.3987   53.0927  254.6050   54.4919  254.6712   54.5265  256.7987   53.8375  257.3790   56.7447  257.5080   56.7135   -0.0119   -0.0000
  2.720  263.7763   56.5549  261.8649   57.9988  261.9330   58.0366  264.2058   57.3695  264.7733   60.4435  264.9118   60.4106   -0.0237   -0.0000
  2.730  271.6094   60.3686  269.5682   61.8582  269.6383   61.8995  272.0701   61.2616  272.6197   64.5180  272.7687   64.4832   -0.0462   -0.0000
  2.740  279.9382   64.5826  277.7535   66.1184  277.8256   66.1637  280.4319   65.5639  280.9569   69.0201  281.1178   68.9837   -0.0882   -0.0001
  2.750  288.8072   69.2544  286.4632   70.8366  286.5375   70.8862  289.3355   70.3355  289.8278   74.0114  290.0019   73.9733   -0.1646   -0.0001
  2.760  298.2653   74.4520  295.7443   76.0799  295.8207   76.1344  298.8298   75.6464  299.2792   79.5643  299.4683   79.5247   -0.3007   -0.0002
  2.770  308.3667   80.2561  305.6482   81.9283  305.7268   81.9884  308.9685   81.5797  309.3623   85.7649  309.5684   85.7242   -0.5373   -0.0004
  2.780  319.1709   86.7635  316.2312   88.4772  316.3121   88.5434  319.8106   88.2346  320.1330   92.7161  320.3582   92.6747   -0.9394   -0.0008
  2.790  330.7429   94.0901  327.5548   95.8407  327.6378   95.9139  331.4202   95.7307  331.6511  100.5414  331.8981  100.4999   -1.6063   -0.0014
  2.800  343.1533  102.3763  339.6851  104.1569  339.7703  104.2380  343.8667  104.2124  343.9807  109.3896  344.2526  109.3490   -2.6863   -0.0024
  2.810  356.4776  111.7926  352.6928  113.5929  352.7800  113.6830  357.2237  113.8550  357.1885  119.4417  357.4889  119.4032   -4.3925   -0.0040
  2.820  370.7952  122.5476  366.6513  124.3528  366.7403  124.4532  371.5679  124.8733  371.3420  130.9181  371.6753  130.8835   -7.0216   -0.0066
  2.830  386.1872  134.8980  381.6347  136.6870  381.7251  136.7993  386.9760  137.5311  386.5061  144.0897  386.8774  144.0615  -10.9706   -0.0106
  2.840  402.7316  149.1615  397.7131  150.9047  397.8044  151.0305  403.5203  152.1551  402.7371  159.2900  403.1523  159.2718  -16.7497   -0.0167
  2.850  420.4963  165.7333  414.9452  167.3894  415.0365  167.5308  421.2597  169.1513  420.0729  176.9327  420.5391  176.9293  -24.9839   -0.0259
  2.860  439.5264  185.1081  433.3663  186.6193  433.4563  186.7787  440.2264  189.0270  438.5172  197.5318  439.0427  197.5502  -36.3986   -0.0393
  2.870  459.8234  207.9069  452.9673  209.1930  453.0544  209.3730  460.4031  212.4180  458.0145  221.7280  458.6088  221.7777  -51.7817   -0.0583
  2.880  481.3114  234.9113  473.6628  235.8605  473.7445  236.0643  481.6861  240.1221  478.4099  250.3189  479.0837  250.4135  -71.9168   -0.0848
  2.890  503.7824  267.1035  495.2382  267.5612  495.3109  267.7921  503.8268  273.1382  499.3855  284.2932  500.1505  284.4519  -97.4861   -0.1206
  2.900  526.8075  305.7109  517.2653  305.4633  517.3243  305.7252  526.3374  312.7065  520.3616  324.8621  521.2293  325.1117 -128.9471   -0.1680
  2.910  549.5973  352.2440  538.9711  350.9984  539.0096  351.2949  548.3438  360.3395  540.3455  373.4739  541.3250  373.8521 -166.3950   -0.2291
  2.920  570.7837  408.5063  559.0329  405.8674  559.0420  406.2017  568.3603  417.8170  557.7050  431.7829  558.7993  432.3415 -209.4302   -0.3061
  2.930  588.0949  476.5233  575.2760  471.9716  575.2438  472.3457  583.9595  487.0882  569.8532  501.5099  571.0508  502.3185 -257.0586   -0.4005
  2.940  597.9041  558.2898  584.2552  551.1748  584.1667  551.5882  591.3316  569.9747  572.8515  584.0882  574.1135  585.2349 -307.6598   -0.5136
  2.950  594.6952  655.1540  580.7616  644.7298  580.5982  645.1782  584.7958  667.4940  561.0330  679.9280  562.2727  681.5131 -359.0623   -0.6456
  2.960  570.6639  766.5810  557.4519  752.1365  557.1920  752.6090  556.5202  778.5715  526.9376  787.1314  527.9964  789.2440 -408.7791   -0.7958
  2.970  516.0384  888.1032  505.1358  869.2497  504.7551  869.7261  497.0571  898.0297  462.1592  899.6859  462.7917  902.3530 -454.4719   -0.9628
  2.980  421.1958 1008.8048  414.6967  985.9482  414.1715  986.3929  397.6928 1014.3436  359.8926 1005.8196  359.7935 1008.9278 -494.7352   -1.1446
  2.990  281.5914 1110.0903  281.5885 1084.9402  280.9062 1085.2954  255.3411 1108.9728  219.3848 1088.2585  218.2918 1091.4910 -530.2757   -1.3395
  3.000  104.4508 1169.0823  112.0003 1144.7236  111.1827 1144.9125   78.5716 1160.2534   50.4491 1128.5198   48.3069 1131.3929 -565.3923   -1.5473
  3.010  -88.1599 1168.4687  -74.0753 1148.4270  -74.9524 1148.3865 -110.3753 1152.9116 -126.1848 1115.0362 -129.1219 1117.0841 -609.1727   -1.7711
  3.020 -266.2197 1107.3394 -248.6312 1093.8830 -249.4601 1093.6100 -282.8144 1087.6294 -285.7121 1050.0805 -288.9677 1051.0768 -675.0030   -2.0192
  3.030 -405.8490 1002.5054 -388.3213  995.5713 -389.0210  995.1301 -416.7589  981.3702 -409.7223  949.0667 -412.8266  949.0920 -776.4471   -2.3045
  3.040 -498.5771  878.4592 -483.5421  876.1168 -484.0971  875.5936 -504.9515  857.5934 -492.1927  832.4641 -494.8545  831.7877 -918.6518   -2.6421
  3.050 -549.7597  755.9504 -537.8581  755.6979 -538.3070  755.1479 -552.8453  735.7546 -537.7801  717.4163 -539.9088  716.3335 *********   -3.0420
  3.060 -571.7079  646.8172 -562.0157  646.7158 -562.4108  646.1354 -571.9423  626.8846 -556.5142  614.0461 -558.1522  612.7798 *********   -3.5007
  3.070 -577.6215  553.4468 -568.3406  553.0233 -568.6889  552.3507 -574.2255  533.6939 -559.2590  525.2722 -560.4949  523.9411 *********   -3.9958
  3.080 -575.2650  470.4635 -565.3612  471.0844 -565.5622  470.2810 -567.3308  452.5344 -553.4813  447.9902 -554.3652  446.6445 *********   -4.4887
  3.090 -563.0573  393.9375 -553.6639  396.8484 -553.6156  396.0298 -551.8839  380.1962 -540.0826  378.7268 -540.6370  377.4454 *********   -4.9358
  3.100 -540.2807  327.7922 -532.7910  332.3460 -532.5543  331.6534 -528.4713  318.5699 -519.0642  318.8747 -519.3710  317.7347 -999.0062   -5.3030
  3.110 -512.0784  274.4847 -506.6706  279.5225 -506.3555  278.9810 -501.1722  268.6054 -493.8237  269.7061 -493.9752  268.7188 -740.9905   -5.5753
  3.120 -482.9344  232.2307 -479.1936  237.0695 -478.8630  236.6471 -473.3572  228.5168 -467.6027  229.9167 -467.6573  229.0623 -497.5183   -5.7581
  3.130 -454.8716  198.3888 -452.3414  202.7540 -452.0202  202.4158 -446.5847  196.0502 -442.0491  197.5181 -442.0397  196.7748 -304.4590   -5.8700
  3.140 -428.5755  170.8582 -426.9006  174.6793 -426.5961  174.3996 -421.4158  169.4091 -417.8233  170.8347 -417.7697  170.1847 -172.2582   -5.9333
  3.150 -404.1956  148.1372 -403.1223  151.4300 -402.8351  151.1910 -397.9911  147.2777 -395.1389  148.6073 -395.0542  148.0366  -92.7236   -5.9674
  3.160 -381.6787  129.1513 -381.0298  131.9637 -380.7578  131.7535 -376.2795  128.6910 -374.0158  129.8995 -373.9091  129.3970  -50.4188   -5.9859
  3.170 -360.8971  113.1138 -360.5485  115.5026 -360.2891  115.3126 -356.1795  112.9277 -354.3883  114.0053 -354.2660  113.5620  -31.2338   -5.9974
  3.180 -341.6987   99.4348 -341.5633  101.4555 -341.3134  101.2797 -337.5624   99.4385 -336.1538  100.3837 -336.0207   99.9923  -25.8578   -6.0069
  3.190 -323.9284   87.6626 -323.9445   89.3663 -323.7010   89.2002 -320.2924   87.7976 -319.1952   88.6137 -319.0549   88.2681  -29.6443   -6.0178
  3.200 -307.4367   77.4460 -307.5602   78.8776 -307.3202   78.7177 -304.2351   77.6706 -303.3927   78.3633 -303.2479   78.0587  -41.1249   -6.0329
  3.210 -292.0830   68.5072 -292.2825   69.7061 -292.0429   69.5497 -289.2622   68.7912 -288.6284   69.3675 -288.4816   69.0998  -60.5362   -6.0551
  3.220 -277.7361   60.6240 -277.9893   61.6244 -277.7470   61.4693 -275.2523   60.9453 -274.7891   61.4128 -274.6422   61.1786  -88.7349   -6.0877
  3.230 -264.2733   53.6162 -264.5644   54.4480 -264.3162   54.2923 -262.0905   53.9584 -261.7658   54.3249 -261.6208   54.1213 -126.4288   -6.1342
  3.240 -251.5779   47.3362 -251.8966   48.0256 -251.6386   47.8676 -249.6668   47.6872 -249.4530   47.9605 -249.3121   47.7852 -173.6107   -6.1980
  3.250 -239.5365   41.6611 -239.8766   42.2316 -239.6044   42.0699 -237.8737   42.0123 -237.7462   42.2011 -237.6117   42.0512 -229.1978   -6.2822
  3.260 -228.0342   36.4885 -228.3933   36.9616 -228.1012   36.7948 -226.6017   36.8340 -226.5381   36.9480 -226.4127   36.8207 -290.9778   -6.3892
  3.270 -216.9473   31.7344 -217.3272   32.1300 -217.0080   31.9573 -215.7336   32.0707 -215.7130   32.1219 -215.5994   32.0131 -355.9749   -6.5200
  3.280 -206.1348   27.3370 -206.5421   27.6740 -206.1860   27.4955 -205.1362   27.6611 -205.1395   27.6652 -205.0398   27.5691 -421.2522   -6.6748
  3.290 -195.4302   23.2699 -195.8782   23.5654 -195.4716   23.3836 -194.6526   23.5754 -194.6643   23.5530 -194.5778   23.4624 -484.9879   -6.8530
  3.300 -184.6441   19.5641 -185.1552   19.8322 -184.6804   19.6545 -184.1018   19.8345 -184.1114   19.8108 -184.0336   19.7191 -547.4555   -7.0542
  3.310 -173.5822   16.3257 -174.1901   16.5734 -173.6259   16.4159 -173.2907   16.5277 -173.2930   16.5318 -173.2161   16.4368 -611.4139   -7.2789
  3.320 -162.0563   13.7378 -162.8089   13.9594 -162.1324   13.8504 -162.0207   13.8221 -162.0138   13.8903 -161.9322   13.7959 -681.4911   -7.5293
  3.330 -149.8677   12.0883 -150.8300   12.2544 -150.0197   12.2406 -150.0754   11.9980 -150.0644   12.1855 -149.9796   12.0971 -762.4804   -7.8096
  3.340 -136.8193   11.8809 -138.0724   11.9145 -137.1169   12.0714 -137.2393   11.5585 -137.2595   11.9552 -137.1797   11.8711 -856.9961   -8.1245
  3.350 -122.8795   14.0067 -124.4959   13.7421 -123.4191   14.1863 -123.4613   13.4006 -123.6347   14.1282 -123.5659   14.0327 -963.4105   -8.4785
  3.360 -108.6389   19.8272 -110.5939   18.9719 -109.5134   19.8522 -109.3139   18.9025 -109.9386   20.0383 -109.8647   19.9025 *********   -8.8736
  3.370  -96.0939   30.7174  -98.0916   28.9192  -97.2904   30.3238  -96.7915   29.4645  -98.3541   30.7953  -98.2183   30.6085 *********   -9.3079
  3.380  -88.9758   46.3716  -90.3591   43.5414  -90.2265   45.2853  -89.6381   44.7843  -92.4226   45.5229  -92.1615   45.3470 *********   -9.7755
  3.390  -90.5533   62.7572  -90.6860   59.4361  -91.3600   60.9915  -91.0932   60.8189  -94.4790   60.0318  -94.1168   59.9727 *********  -10.2673
  3.400  -99.5031   73.8864  -98.4103   70.9569  -99.5298   71.8830  -99.7915   71.6485 -102.5666   69.3393 -102.1992   69.4334 *********  -10.7731
  3.410 -110.3813   77.3011 -108.6764   75.2361 -109.7589   75.5551 -110.3589   74.9033 -111.9185   71.9288 -111.6152   72.1431 *********  -11.2834
  3.420 -118.8804   75.1458 -117.1323   73.8552 -117.9621   73.8330 -118.5984   72.7039 -119.1125   69.7990 -118.9027   70.0897 *********  -11.7912
  3.430 -123.9192   70.5943 -122.3780   69.7886 -122.9623   69.6413 -123.4656   68.1352 -123.3165   65.5928 -123.2112   65.9216 *********  -12.2914
  3.440 -126.1850   65.7153 -124.8818   65.1552 -125.2953   64.9876 -125.6163   63.1904 -125.0916   61.0443 -125.0924   61.3759 *********  -12.7848
  3.450 -126.7810   61.4425 -125.6641   60.9817 -125.9707   60.8299 -126.0813   58.7621 -125.3429   56.9653 -125.4417   57.2653 *********  -13.3787
  3.460 -126.7339   57.9281 -125.7070   57.4650 -125.9674   57.3622 -125.7824   55.0176 -124.9087   53.5196 -125.0881   53.7586 *********  -14.3439
  3.470 -126.7269   54.7646 -125.6551   54.3935 -125.9422   54.2317 -125.3243   51.6886 -124.3530   50.4828 -124.5795   50.6264 *********  -15.1048
  3.480 -126.8193   51.2823 -125.7765   51.0489 -125.9869   50.8279 -124.8495   48.2437 -123.8513   47.3317 -124.0708   47.3848 *********  -15.5327
  3.490 -126.4876   47.2089 -125.5085   47.1168 -125.6334   46.8826 -123.9887   44.4645 -123.0390   43.8216 -123.2202   43.8125 -965.2969  -15.8875
  3.500 -125.2876   42.8668 -124.4167   42.8949 -124.4695   42.6791 -122.4421   40.5835 -121.6003   40.1533 -121.7356   40.1150 -838.1198  -16.1955
  3.510 -123.2198   38.7472 -122.4793   38.8511 -122.4831   38.6688 -120.2332   36.9530 -119.5227   36.6681 -119.6207   36.6228 -705.0860  -16.4546
  3.520 -120.5600   35.1328 -119.9461   35.2704 -119.9214   35.1231 -117.5816   33.7690 -116.9974   33.5743 -117.0698   33.5319 -573.7666  -16.6654
  3.530 -117.5949   32.0764 -117.0910   32.2193 -117.0514   32.1018 -114.7087   31.0585 -114.2335   30.9172 -114.2896   30.8806 -452.4135  -16.8317
  3.540 -114.5207   29.5175 -114.1077   29.6493 -114.0610   29.5556 -111.7646   28.7665 -111.3797   28.6567 -111.4253   28.6257 -347.1567  -16.9593
  3.550 -111.4487   27.3665 -111.1097   27.4794 -111.0600   27.4040 -108.8348   26.8189 -108.5232   26.7280 -108.5619   26.7019 -261.2981  -17.0553
  3.560 -108.4356   25.5410 -108.1566   25.6319 -108.1061   25.5706 -105.9622   25.1485 -105.7106   25.0696 -105.7444   25.0474 -195.3729  -17.1271
  3.570 -105.5068   23.9748 -105.2770   24.0433 -105.2266   23.9926 -103.1665   23.7013 -102.9640   23.6307 -102.9943   23.6115 -147.7600  -17.1814
  3.580 -102.6716   22.6171 -102.4827   22.6640 -102.4329   22.6217 -100.4546   22.4359 -100.2929   22.3716 -100.3205   22.3550 -115.5369  -17.2239
  3.590  -99.9310   21.4296  -99.7766   21.4565  -99.7275   21.4206  -97.8274   21.3208  -97.6997   21.2619  -97.7251   21.2474  -95.3058  -17.2589
  3.600  -97.2823   20.3835  -97.1574   20.3922  -97.1090   20.3613  -95.2825   20.3320  -95.1833   20.2784  -95.2069   20.2656  -83.8164  -17.2897
  3.610  -94.7208   19.4567  -94.6216   19.4491  -94.5740   19.4222  -92.8160   19.4510  -92.7412   19.4028  -92.7632   19.3916  -78.3300  -17.3185
  3.620  -92.2413   18.6323  -92.1650   18.6103  -92.1179   18.5864  -90.4238   18.6635  -90.3697   18.6213  -90.3904   18.6115  -76.7499  -17.3467
  3.630  -89.8387   17.8972  -89.7830   17.8625  -89.7363   17.8410  -88.1015   17.9583  -88.0651   17.9228  -88.0847   17.9142  -77.5925  -17.3752
  3.640  -87.5078   17.2410  -87.4711   17.1953  -87.4247   17.1757  -85.8450   17.3264  -85.8239   17.2984  -85.8425   17.2910  -79.8754  -17.4045
  3.650  -85.2440   16.6555  -85.2251   16.6003  -85.1788   16.5821  -83.6503   16.7608  -83.6424   16.7412  -83.6601   16.7348  -82.9839  -17.4350
  3.660  -83.0431   16.1342  -83.0412   16.0710  -82.9949   16.0538  -81.5140   16.2556  -81.5175   16.2454  -81.5344   16.2401  -86.5498  -17.4668
  3.670  -80.9012   15.6719  -80.9157   15.6018  -80.8693   15.5853  -79.4327   15.8063  -79.4462   15.8066  -79.4623   15.8022  -90.3594  -17.5001
  3.680  -78.8149   15.2642  -78.8456   15.1886  -78.7989   15.1725  -77.4037   15.4091  -77.4258   15.4211  -77.4413   15.4175  -94.2897  -17.5347
  3.690  -76.7813   14.9078  -76.8282   14.8277  -76.7810   14.8118  -75.4244   15.0609  -75.4541   15.0857  -75.4690   15.0830  -98.2687  -17.5708
  3.700  -74.7977   14.5999  -74.8609   14.5163  -74.8131   14.5004  -73.4926   14.7591  -73.5291   14.7981  -73.5435   14.7963 -102.2519  -17.6084
  3.710  -72.8620   14.3382  -72.9419   14.2521  -72.8934   14.2360  -71.6065   14.5017  -71.6491   14.5562  -71.6630   14.5552 -106.2091  -17.6474
  3.720  -70.9723   14.1208  -71.0695   14.0330  -71.0200   14.0165  -69.7647   14.2869  -69.8127   14.3584  -69.8262   14.3581 -110.1181  -17.6879
  3.730  -69.1272   13.9462  -69.2423   13.8573  -69.1918   13.8404  -67.9659   14.1132  -68.0190   14.2033  -68.0321   14.2036 -113.9607  -17.7298
  3.740  -67.3256   13.8131  -67.4595   13.7238  -67.4078   13.7062  -66.2094   13.9792  -66.2673   14.0894  -66.2800   14.0905 -117.7214  -17.7730
  3.750  -65.5667   13.7200  -65.7205   13.6309  -65.6675   13.6126  -64.4946   13.8838  -64.5572   14.0157  -64.5695   14.0174 -121.3867  -17.8176
  3.760  -63.8502   13.6659  -64.0250   13.5774  -63.9704   13.5583  -62.8213   13.8255  -62.8886   13.9810  -62.9005   13.9833 -124.9450  -17.8636
  3.770  -62.1759   13.6494  -62.3731   13.5618  -62.3167   13.5418  -61.1895   13.8030  -61.2617   13.9840  -61.2733   13.9868 -128.3864  -17.9107
  3.780  -60.5438   13.6692  -60.7649   13.5828  -60.7066   13.5618  -59.5995   13.8149  -59.6769   14.0232  -59.6880   14.0265 -131.7032  -17.9591
  3.790  -58.9543   13.7237  -59.2009   13.6385  -59.1404   13.6165  -58.0516   13.8594  -58.1346   14.0970  -58.1454   14.1008 -134.8901  -18.0087
  3.800  -57.4077   13.8110  -57.6817   13.7270  -57.6187   13.7039  -56.5463   13.9345  -56.6355   14.2034  -56.6459   14.2077 -137.9445  -18.0594
  3.810  -55.9045   13.9290  -56.2078   13.8460  -56.1422   13.8217  -55.0840   14.0378  -55.1803   14.3404  -55.1903   14.3451 -140.8674  -18.1112
  3.820  -54.4450   14.0752  -54.7797   13.9928  -54.7111   13.9674  -53.6651   14.1668  -53.7693   14.5051  -53.7789   14.5102 -143.6634  -18.1640
  3.830  -53.0293   14.2469  -53.3977   14.1645  -53.3258   14.1379  -52.2897   14.3184  -52.4029   14.6948  -52.4120   14.7003 -146.3419  -18.2178
  3.840  -51.6572   14.4408  -52.0618   14.3576  -51.9863   14.3299  -50.9575   14.4893  -51.0810   14.9061  -51.0895   14.9120 -148.9176  -18.2725
  3.850  -50.3281   14.6537  -50.7715   14.5687  -50.6920   14.5400  -49.6679   14.6760  -49.8030   15.1357  -49.8109   15.1420 -151.4115  -18.3281
  3.860  -49.0408   14.8820  -49.5257   14.7939  -49.4420   14.7642  -48.4195   14.8746  -48.5678   15.3797  -48.5751   15.3865 -153.8523  -18.3847
  3.870  -47.7937   15.1222  -48.3228   15.0295  -48.2345   14.9989  -47.2104   15.0814  -47.3737   15.6347  -47.3803   15.6419 -156.2776  -18.4421
  3.880  -46.5842   15.3708  -47.1606   15.2716  -47.0672   15.2404  -46.0382   15.2929  -46.2183   15.8971  -46.2241   15.9047 -158.7356  -18.5004
  3.890  -45.4092   15.6247  -46.0360   15.5167  -45.9373   15.4851  -44.8995   15.5055  -45.0984   16.1637  -45.1034   16.1717 -161.2868  -18.5597
  3.900  -44.2649   15.8810  -44.9455   15.7618  -44.8409   15.7301  -43.7904   15.7164  -44.0103   16.4316  -44.0145   16.4402 -164.0063  -18.6200
  3.910  -43.1470   16.1377  -43.8847   16.0042  -43.7740   15.9727  -42.7064   15.9231  -42.9497   16.6987  -42.9530   16.7079 -166.9859  -18.6813
  3.920  -42.0508   16.3933  -42.8491   16.2421  -42.7319   16.2111  -41.6425   16.1238  -41.9119   16.9636  -41.9142   16.9734 -170.3365  -18.7439
  3.930  -40.9710   16.6471  -41.8336   16.4743  -41.7096   16.4441  -40.5935   16.3176  -40.8918   17.2256  -40.8931   17.2361 -174.1904  -18.8079
  3.940  -39.9023   16.8995  -40.8329   16.7003  -40.7018   16.6715  -39.5537   16.5043  -39.8843   17.4849  -39.8846   17.4961 -178.7036  -18.8736
  3.950  -38.8395   17.1514  -39.8418   16.9206  -39.7032   16.8935  -38.5175   16.6845  -38.8841   17.7425  -38.8833   17.7546 -184.0578  -18.9413
  3.960  -37.7772   17.4049  -38.8550   17.1363  -38.7087   17.1115  -37.4794   16.8596  -37.8861   18.0003  -37.8843   18.0133 -190.4618  -19.0113
  3.970  -36.7105   17.6629  -37.8675   17.3494  -37.7132   17.3273  -36.4340   17.0318  -36.8856   18.2611  -36.8826   18.2750 -198.1520  -19.0841
  3.980  -35.6348   17.9289  -36.8744   17.5623  -36.7117   17.5434  -35.3759   17.2038  -35.8780   18.5281  -35.8740   18.5431 -207.3923  -19.1603
  3.990  -34.5458   18.2073  -35.8709   17.7781  -35.6998   17.7630  -34.3002   17.3791  -34.8593   18.8056  -34.8542   18.8216 -218.4721  -19.2406
  4.000  -33.4401   18.5031  -34.8529   18.0005  -34.6729   17.9896  -33.2021   17.5617  -33.8260   19.0980  -33.8198   19.1152 -231.7020  -19.3257
  4.010  -32.3144   18.8218  -33.8161   18.2334  -33.6270   18.2273  -32.0770   17.7562  -32.7748   19.4106  -32.7675   19.4289 -247.4075  -19.4166
  4.020  -31.1665   19.1695  -32.7564   18.4814  -32.5580   18.4807  -30.9208   17.9674  -31.7031   19.7489  -31.6949   19.7683 -265.9191  -19.5144
  4.030  -29.9947   19.5524  -31.6700   18.7493  -31.4618   18.7546  -29.7291   18.2009  -30.6089   20.1187  -30.5996   20.1393 -287.5588  -19.6200
  4.040  -28.7981   19.9771  -30.5528   19.0426  -30.3344   19.0546  -28.4979   18.4626  -29.4903   20.5264  -29.4801   20.5481 -312.6230  -19.7349
  4.050  -27.5766   20.4501  -29.4008   19.3673  -29.1717   19.3867  -27.2230   18.7592  -28.3462   20.9784  -28.3351   21.0010 -341.3611  -19.8604
  4.060  -26.3307   20.9773  -28.2093   19.7304  -27.9690   19.7579  -25.9003   19.0979  -27.1756   21.4811  -27.1635   21.5043 -373.9513  -19.9978
  4.070  -25.0612   21.5639  -26.9738   20.1398  -26.7216   20.1764  -24.5255   19.4868  -25.9775   22.0410  -25.9643   22.0645 -410.4734  -20.1486
  4.080  -23.7684   22.2141  -25.6890   20.6051  -25.4239   20.6518  -23.0941   19.9351  -24.7505   22.6644  -24.7360   22.6877 -450.8812  -20.3143
  4.090  -22.4510   22.9302  -24.3492   21.1379  -24.0703   21.1959  -21.6013   20.4532  -23.4920   23.3578  -23.4757   23.3801 -494.9754  -20.4962
  4.100  -21.1042   23.7140  -22.9489   21.7524  -22.6549   21.8234  -20.0421   21.0532  -22.1968   24.1282  -22.1777   24.1489 -542.3805  -20.6956
  4.110  -19.7173   24.5681  -21.4824   22.4665  -21.1719   22.5524  -18.4113   21.7493  -20.8563   24.9853  -20.8328   25.0036 -592.5275  -20.9133
  4.120  -18.2721   25.5004  -19.9453   23.3023  -19.6167   23.4058  -16.7032   22.5581  -19.4577   25.9445  -19.4277   25.9600 -644.6471  -21.1502
  4.130  -16.7442   26.5292  -18.3353   24.2875  -17.9866   24.4119  -14.9123   23.4998  -17.9857   27.0311  -17.9460   27.0443 -697.7767  -21.4066
  4.140  -15.1076   27.6893  -16.6539   25.4556  -16.2832   25.6054  -13.0331   24.5984  -16.4266   28.2843  -16.3739   28.2970 -750.7860  -21.6826
  4.150  -13.3422   29.0338  -14.9087   26.8466  -14.5144   27.0277  -11.0608   25.8835  -14.7755   29.7593  -14.7063   29.7746 -802.4239  -21.9774
  4.160  -11.4421   30.6329  -13.1164   28.5070  -12.6973   28.7270   -8.9922   27.3910  -13.0437   31.5249  -12.9555   31.5478 -851.3901  -22.2903
  4.170   -9.4210   32.5683  -11.3061   30.4885  -10.8622   30.7570   -6.8262   29.1655  -11.2651   33.6588  -11.1566   33.6954 -896.4274  -22.6198
  4.180   -7.3144   34.9289   -9.5229   32.8462   -9.0563   33.1749   -4.5664   31.2616   -9.4997   36.2417   -9.3716   36.2994 -936.4305  -22.9639
  4.190   -5.1809   37.8090   -7.8319   35.6344   -7.3476   36.0370   -2.2237   33.7473   -7.8369   39.3521   -7.6923   39.4384 -970.5570  -23.3206
  4.200   -3.1066   41.3082   -6.3212   38.9012   -5.8287   39.3931    0.1793   36.7067   -6.3998   43.0598   -6.2442   43.1820 -998.3251  -23.6874
  4.210   -1.2150   45.5307   -5.1040   42.6811   -4.6180   43.2785    2.6008   40.2431   -5.3503   47.4177   -5.1920   47.5818 *********  -24.0622
  4.220    0.3177   50.5786   -4.3175   46.9857   -3.8601   47.7041    4.9691   44.4820   -4.8959   52.4476   -4.7452   52.6577 *********  -24.4425
  4.230    1.2432   56.5341   -4.1205   51.7941   -3.7224   52.6458    7.1652   49.5717   -5.2928   58.1168   -5.1625   58.3740 *********  -24.8266
  4.240    1.2233   63.4233   -4.6859   57.0427   -4.3872   58.0334    8.9983   55.6775   -6.8413   64.3045   -6.7453   64.6061 *********  -25.2127
  4.250   -0.1725   71.1573   -6.1908   62.6173   -6.0408   63.7404   10.1712   62.9639   -9.8598   70.7572   -9.8122   71.0952 *********  -25.5999
  4.260   -3.4317   79.4519   -8.8040   68.3479   -8.8582   69.5782   10.2385   71.5507  -14.6232   77.0445  -14.6358   77.4055 *********  -25.9873
  4.270   -9.0003   87.7541  -12.6766   74.0040  -12.9889   75.2916    8.5698   81.4244  -21.2535   82.5463  -21.3330   82.9115 *********  -26.3744
  4.280  -17.1142   95.2307  -17.9306   79.2833  -18.5414   80.5493    4.3565   92.2870  -29.5792   86.5200  -29.7244   86.8682 *********  -26.7610
  4.290  -27.6185  100.8802  -24.6334   83.7847  -25.5516   84.9252   -3.2630  103.3510  -39.0391   88.2863  -39.2398   88.5982 *********  -27.1464
  4.300  -39.8748  103.7640  -32.7219   86.9845  -33.9079   87.8859  -14.8658  113.1835  -48.7392   87.4858  -48.9782   87.7484 *********  -27.5301
  4.310  -52.8238  103.2647  -41.8702   88.2819  -43.2290   88.8507  -30.2061  119.8372  -57.7029   84.2493  -57.9603   84.4585 *********  -27.9109
  4.320  -65.1764   99.2819  -51.3842   87.1928  -52.7807   87.3891  -47.7935  121.4996  -65.1807   79.1438  -65.4388   79.3039 *********  -28.2871
  4.330  -75.7021   92.3225  -60.2973   83.6393  -61.5954   83.4933  -65.1358  117.4510  -70.8246   72.9322  -71.0709   73.0528 *********  -28.6562
  4.340  -83.5688   83.4005  -67.7122   78.0879  -68.8152   77.6852  -79.7597  108.5564  -74.6570   66.3222  -74.8855   66.4148 -977.9763  -29.0156
  4.350  -88.5549   73.7102  -73.1420   71.3647  -74.0102   70.8102  -90.2470   96.7725  -76.9265   59.8301  -77.1361   59.9049 -942.6427  -29.3620
  4.360  -90.9782   64.2531  -76.5843   64.3047  -77.2261   63.6901  -96.4864   84.1495  -77.9623   53.7645  -78.1549   53.8291 -898.1140  -29.6921
  4.370  -91.4307   55.6482  -78.3526   57.5113  -78.8024   56.9007  -99.2141   72.1473  -78.0825   48.2709  -78.2611   48.3302 -844.6081  -30.0025
  4.380  -90.5282   48.1554  -78.8622   51.3121  -79.1622   50.7421  -99.4265   61.5115  -77.5536   43.3888  -77.7214   43.4457 -783.0530  -30.2903
  4.390  -88.7786   41.7962  -78.4955   45.8262  -78.6847   45.3137  -98.0189   52.4631  -76.5824   39.0978  -76.7421   39.1537 -715.0222  -30.5530
  4.400  -86.5499   36.4704  -77.5523   41.0512  -77.6625   40.6004  -95.6629   44.9333  -75.3220   35.3485  -75.4758   35.4040 -642.5886  -30.7892
  4.410  -84.0887   32.0335  -76.2487   36.9269  -76.3042   36.5354  -92.8137   38.7318  -73.8826   32.0804  -74.0319   32.1359 -568.1208  -30.9979
  4.420  -81.5513   28.3383  -74.7336   33.3732  -74.7519   33.0352  -89.7605   33.6398  -72.3419   29.2326  -72.4879   29.2880 -494.0522  -31.1795
  4.430  -79.0321   25.2522  -73.1063   30.3088  -73.1001   30.0177  -86.6780   29.4532  -70.7538   26.7479  -70.8972   26.8033 -422.6558  -31.3348
  4.440  -76.5855   22.6632  -71.4323   27.6596  -71.4103   27.4086  -83.6664   25.9970  -69.1550   24.5754  -69.2964   24.6307 -355.8559  -31.4656
  4.450  -74.2406   20.4791  -69.7539   25.3611  -69.7221   25.1441  -80.7796   23.1281  -67.5703   22.6706  -67.7101   22.7258 -295.0988  -31.5741
  4.460  -72.0107   18.6257  -68.0979   23.3588  -68.0604   23.1704  -78.0431   20.7317  -66.0157   20.9954  -66.1543   21.0504 -241.2938  -31.6627
  4.470  -69.8995   17.0434  -66.4808   21.6071  -66.4403   21.4427  -75.4654   18.7169  -64.5016   19.5171  -64.6392   19.5720 -194.8213  -31.7343
  4.480  -67.9054   15.6844  -64.9124   20.0681  -64.8707   19.9236  -73.0456   17.0115  -63.0337   18.2083  -63.1706   18.2631 -155.5978  -31.7915
  4.490  -66.0234   14.5104  -63.3977   18.7102  -63.3559   18.5824  -70.7772   15.5588  -61.6153   17.0455  -61.7516   17.1003 -123.1769  -31.8368
  4.500  -64.2471   13.4906  -61.9390   17.5072  -61.8978   17.3933  -68.6510   14.3135  -60.2476   16.0090  -60.3834   16.0639  -96.8671  -31.8724
  4.510  -62.5695   12.6001  -60.5365   16.4372  -60.4962   16.3350  -66.6568   13.2397  -58.9302   15.0821  -59.0658   15.1372  -75.8459  -31.9002
  4.520  -60.9832   11.8186  -59.1892   15.4821  -59.1500   15.3896  -64.7841   12.3085  -57.6623   14.2507  -57.7977   14.3059  -59.2576  -31.9220
  4.530  -59.4811   11.1296  -57.8953   14.6266  -57.8573   14.5421  -63.0228   11.4967  -56.4420   13.5026  -56.5774   13.5581  -46.2863  -31.9390
  4.540  -58.0566   10.5195  -56.6526   13.8576  -56.6156   13.7799  -61.3632   10.7856  -55.2676   12.8275  -55.4031   12.8835  -36.2028  -31.9523
  4.550  -56.7035    9.9772  -55.4585   13.1644  -55.4225   13.0923  -59.7965   10.1598  -54.1368   12.2168  -54.2725   12.2733  -28.3869  -31.9628
  4.560  -55.4158    9.4933  -54.3106   12.5377  -54.2753   12.4702  -58.3145    9.6067  -53.0473   11.6629  -53.1834   11.7199  -22.3325  -31.9710
  4.570  -54.1883    9.0601  -53.2061   11.9695  -53.1713   11.9059  -56.9099    9.1161  -51.9969   11.1593  -52.1336   11.2169  -17.6392  -31.9775
  4.580  -53.0162    8.6712  -52.1425   11.4531  -52.1081   11.3927  -55.5760    8.6792  -50.9835   10.7004  -51.1208   10.7588  -13.9980  -31.9826
  4.590  -51.8950    8.3209  -51.1173   10.9828  -51.0831   10.9250  -54.3066    8.2889  -50.0048   10.2814  -50.1429   10.3406  -11.1742  -31.9867
  4.600  -50.8207    8.0047  -50.1282   10.5534  -50.0939   10.4978  -53.0964    7.9393  -49.0588    9.8982  -49.1978    9.9583   -8.9911  -31.9900
  4.610  -49.7898    7.7186  -49.1730   10.1608  -49.1385   10.1069  -51.9404    7.6252  -48.1435    9.5470  -48.2836    9.6081   -7.3164  -31.9927
  4.620  -48.7988    7.4593  -48.2495    9.8012  -48.2145    9.7485  -50.8342    7.3424  -47.2572    9.2248  -47.3984    9.2870   -6.0506  -31.9949
  4.630  -47.8448    7.2239  -47.3558    9.4712  -47.3201    9.4196  -49.7738    7.0874  -46.3979    8.9288  -46.5404    8.9921   -5.1187  -31.9968
  4.640  -46.9250    7.0098  -46.4900    9.1680  -46.4534    9.1172  -48.7555    6.8569  -45.5641    8.6565  -45.7081    8.7210   -4.4639  -31.9984
  4.650  -46.0369    6.8151  -45.6503    8.8892  -45.6127    8.8389  -47.7762    6.6484  -44.7542    8.4058  -44.8998    8.4716   -4.0440  -31.9999
  4.660  -45.1782    6.6378  -44.8352    8.6326  -44.7964    8.5826  -46.8327    6.4595  -43.9669    8.1748  -44.1141    8.2420   -3.8273  -32.0013
  4.670  -44.3469    6.4762  -44.0431    8.3963  -44.0029    8.3463  -45.9225    6.2883  -43.2006    7.9619  -43.3497    8.0305   -3.7915  -32.0027
  4.680  -43.5410    6.3292  -43.2727    8.1784  -43.2308    8.1285  -45.0430    6.1332  -42.4542    7.7657  -42.6054    7.8358   -3.9214  -32.0042
  4.690  -42.7587    6.1953  -42.5225    7.9777  -42.4789    7.9275  -44.1920    5.9927  -41.7264    7.5847  -41.8798    7.6564   -4.2085  -32.0057
  4.700  -41.9986    6.0735  -41.7914    7.7927  -41.7459    7.7422  -43.3675    5.8654  -41.0161    7.4180  -41.1718    7.4913   -4.6494  -32.0074
  4.710  -41.2590    5.9630  -41.0782    7.6222  -41.0306    7.5713  -42.5676    5.7503  -40.3223    7.2644  -40.4806    7.3395   -5.2458  -32.0094
  4.720  -40.5386    5.8629  -40.3818    7.4654  -40.3319    7.4139  -41.7906    5.6465  -39.6440    7.1231  -39.8049    7.2000   -6.0036  -32.0116
  4.730  -39.8361    5.7725  -39.7012    7.3211  -39.6489    7.2690  -41.0349    5.5530  -38.9803    6.9932  -39.1440    7.0720   -6.9326  -32.0141
  4.740  -39.1504    5.6911  -39.0355    7.1886  -38.9806    7.1358  -40.2990    5.4692  -38.3302    6.8742  -38.4970    6.9550   -8.0462  -32.0171
  4.750  -38.4803    5.6184  -38.3838    7.0673  -38.3261    7.0137  -39.5815    5.3945  -37.6929    6.7653  -37.8630    6.8481   -9.3608  -32.0205
  4.760  -37.8249    5.5537  -37.7452    6.9564  -37.6846    6.9019  -38.8814    5.3282  -37.0678    6.6660  -37.2413    6.7510  -10.8960  -32.0245
  4.770  -37.1832    5.4966  -37.1189    6.8554  -37.0552    6.8000  -38.1972    5.2699  -36.4539    6.5758  -36.6311    6.6630  -12.6743  -32.0292
  4.780  -36.5544    5.4469  -36.5043    6.7638  -36.4373    6.7074  -37.5281    5.2193  -35.8507    6.4943  -36.0318    6.5838  -14.7207  -32.0346
  4.790  -35.9375    5.4042  -35.9006    6.6812  -35.8301    6.6237  -36.8730    5.1758  -35.2575    6.4211  -35.4427    6.5130  -17.0627  -32.0408
  4.800  -35.3319    5.3683  -35.3070    6.6072  -35.2329    6.5486  -36.2310    5.1394  -34.6736    6.3559  -34.8632    6.4504  -19.7300  -32.0481
  4.810  -34.7368    5.3389  -34.7231    6.5414  -34.6451    6.4816  -35.6012    5.1096  -34.0985    6.2984  -34.2928    6.3955  -22.7546  -32.0565
  4.820  -34.1515    5.3159  -34.1483    6.4836  -34.0661    6.4226  -34.9827    5.0863  -33.5315    6.2484  -33.7307    6.3482  -26.1702  -32.0661
  4.830  -33.5753    5.2991  -33.5818    6.4336  -33.4954    6.3713  -34.3748    5.0693  -32.9722    6.2056  -33.1766    6.3083  -30.0123  -32.0771
  4.840  -33.0078    5.2884  -33.0233    6.3911  -32.9323    6.3275  -33.7768    5.0585  -32.4200    6.1700  -32.6300    6.2756  -34.3177  -32.0897
  4.850  -32.4482    5.2839  -32.4722    6.3560  -32.3764    6.2910  -33.1880    5.0538  -31.8745    6.1414  -32.0903    6.2500  -39.1242  -32.1041
  4.860  -31.8961    5.2853  -31.9280    6.3282  -31.8272    6.2617  -32.6077    5.0551  -31.3351    6.1196  -31.5571    6.2314  -44.4704  -32.1204
  4.870  -31.3509    5.2927  -31.3902    6.3076  -31.2841    6.2396  -32.0354    5.0624  -30.8013    6.1047  -31.0300    6.2198  -50.3954  -32.1390
  4.880  -30.8122    5.3062  -30.8585    6.2940  -30.7468    6.2245  -31.4704    5.0757  -30.2729    6.0966  -30.5086    6.2151  -56.9378  -32.1599
  4.890  -30.2795    5.3257  -30.3323    6.2876  -30.2148    6.2165  -30.9122    5.0950  -29.7492    6.0953  -29.9924    6.2174  -64.1360  -32.1835
  4.900  -29.7523    5.3514  -29.8114    6.2883  -29.6876    6.2155  -30.3602    5.1204  -29.2300    6.1009  -29.4811    6.2267  -72.0273  -32.2099
  4.910  -29.2302    5.3832  -29.2953    6.2961  -29.1649    6.2217  -29.8140    5.1519  -28.7149    6.1133  -28.9743    6.2430  -80.6475  -32.2396
  4.920  -28.7129    5.4214  -28.7836    6.3111  -28.6463    6.2349  -29.2731    5.1897  -28.2033    6.1327  -28.4718    6.2664  -90.0302  -32.2726
  4.930  -28.2000    5.4661  -28.2760    6.3333  -28.1315    6.2554  -28.7370    5.2338  -27.6951    6.1592  -27.9731    6.2971 -100.2070  -32.3095
  4.940  -27.6912    5.5174  -27.7723    6.3630  -27.6200    6.2833  -28.2053    5.2846  -27.1898    6.1929  -27.4780    6.3352 -111.2062  -32.3503
  4.950  -27.1860    5.5756  -27.2720    6.4003  -27.1115    6.3187  -27.6776    5.3421  -26.6872    6.2341  -26.9862    6.3809 -123.0534  -32.3956
  4.960  -26.6842    5.6408  -26.7749    6.4453  -26.6057    6.3618  -27.1535    5.4065  -26.1868    6.2828  -26.4974    6.4344 -135.7704  -32.4455
  4.970  -26.1856    5.7134  -26.2808    6.4983  -26.1024    6.4128  -26.6326    5.4782  -25.6884    6.3395  -26.0114    6.4960 -149.3758  -32.5003
  4.980  -25.6899    5.7936  -25.7894    6.5595  -25.6012    6.4719  -26.1145    5.5574  -25.1916    6.4042  -25.5280    6.5659 -163.8843  -32.5606
  4.990  -25.1968    5.8816  -25.3005    6.6292  -25.1018    6.5395  -25.5991    5.6445  -24.6963    6.4774  -25.0470    6.6444 -179.3075  -32.6265
  5.000  -24.7061    5.9779  -24.8139    6.7076  -24.6041    6.6158  -25.0858    5.7397  -24.2021    6.5594  -24.5681    6.7320 -195.6541  -32.6984
  5.010  -24.2178    6.0828  -24.3295    6.7951  -24.1078    6.7012  -24.5745    5.8434  -23.7088    6.6504  -24.0914    6.8288 -212.9299  -32.7766
  5.020  -23.7315    6.1966  -23.8471    6.8921  -23.6127    6.7960  -24.0649    5.9561  -23.2162    6.7510  -23.6166    6.9355 -231.1391  -32.8616
  5.030  -23.2474    6.3198  -23.3667    6.9989  -23.1186    6.9005  -23.5568    6.0782  -22.7240    6.8616  -23.1438    7.0523 -250.2845  -32.9535
  5.040  -22.7652    6.4527  -22.8881    7.1160  -22.6255    7.0153  -23.0499    6.2101  -22.2321    6.9827  -22.6729    7.1799 -270.3688  -33.0529
  5.050  -22.2851    6.5958  -22.4115    7.2437  -22.1330    7.1407  -22.5440    6.3523  -21.7403    7.1146  -22.2038    7.3185 -291.3945  -33.1600
  5.060  -21.8069    6.7496  -21.9367    7.3824  -21.6413    7.2772  -22.0391    6.5055  -21.2486    7.2581  -21.7369    7.4689 -313.3651  -33.2751
  5.070  -21.3308    6.9144  -21.4640    7.5327  -21.1502    7.4252  -21.5349    6.6700  -20.7567    7.4136  -21.2720    7.6315 -336.2847  -33.3987
  5.080  -20.8569    7.0906  -20.9935    7.6950  -20.6597    7.5852  -21.0315    6.8466  -20.2646    7.5818  -20.8095    7.8069 -360.1578  -33.5311
  5.090  -20.3854    7.2788  -20.5253    7.8696  -20.1697    7.7577  -20.5286    7.0358  -19.7722    7.7633  -20.3497    7.9957 -384.9879  -33.6726
  5.100  -19.9164    7.4791  -20.0597    8.0570  -19.6803    7.9431  -20.0263    7.2382  -19.2795    7.9587  -19.8929    8.1983 -410.7755  -33.8235
  5.110  -19.4503    7.6920  -19.5969    8.2575  -19.1915    8.1420  -19.5246    7.4545  -18.7864    8.1688  -19.4396    8.4155 -437.5149  -33.9843
  5.120  -18.9871    7.9177  -19.1374    8.4715  -18.7033    8.3546  -19.0234    7.6852  -18.2930    8.3943  -18.9902    8.6475 -465.1902  -34.1553
  5.130  -18.5272    8.1564  -18.6813    8.6990  -18.2155    8.5815  -18.5227    7.9311  -17.7991    8.6358  -18.5454    8.8949 -493.7693  -34.3367
  5.140  -18.0708    8.4080  -18.2290    8.9404  -17.7282    8.8229  -18.0223    8.1927  -17.3048    8.8942  -18.1058    9.1581 -523.1984  -34.5290
  5.150  -17.6178    8.6725  -17.7808    9.1955  -17.2409    9.0794  -17.5223    8.4709  -16.8098    9.1703  -17.6722    9.4373 -553.3949  -34.7324
  5.160  -17.1682    8.9498  -17.3367    9.4643  -16.7534    9.3511  -17.0222    8.7662  -16.3140    9.4650  -17.2454    9.7325 -584.2401  -34.9471
  5.170  -16.7216    9.2395  -16.8968    9.7464  -16.2649    9.6386  -16.5218    9.0796  -15.8171    9.7792  -16.8259   10.0437 -615.5731  -35.1733
  5.180  -16.2773    9.5412  -16.4607   10.0417  -15.7745    9.9424  -16.0204    9.4119  -15.3184   10.1143  -16.4146   10.3707 -647.1850  -35.4111
  5.190  -15.8340    9.8547  -16.0276   10.3497  -15.2809   10.2635  -15.5172    9.7644  -14.8174   10.4718  -16.0119   10.7130 -678.8158  -35.6606
  5.200  -15.3898   10.1799  -15.5962   10.6702  -14.7823   10.6029  -15.0110   10.1387  -14.3132   10.8536  -15.6180   11.0699 -710.1537  -35.9216
  5.210  -14.9420   10.5171  -15.1648   11.0031  -14.2765   10.9628  -14.5005   10.5371  -13.8047   11.2623  -15.2328   11.4404 -740.8372  -36.1938
  5.220  -14.4869   10.8674  -14.7305   11.3492  -13.7610   11.3461  -13.9840   10.9627  -13.2909   11.7014  -14.8555   11.8237 -770.4621  -36.4769
  5.230  -14.0201   11.2335  -14.2900   11.7099  -13.2333   11.7570  -13.4599   11.4198  -12.7711   12.1756  -14.4845   12.2190 -798.5914  -36.7704
  5.240  -13.5366   11.6201  -13.8394   12.0884  -12.6910   12.2017  -12.9270   11.9145  -12.2451   12.6909  -14.1174   12.6258 -824.7693  -37.0735
  5.250  -13.0314   12.0348  -13.3746   12.4900  -12.1330   12.6879  -12.3852   12.4547  -11.7140   13.2547  -13.7507   13.0447 -848.5390  -37.3853
  5.260  -12.5012   12.4887  -12.8922   12.9224  -11.5597   13.2256  -11.8366   13.0503  -11.1814   13.8761  -13.3801   13.4775 -869.4615  -37.7049
  5.270  -11.9459   12.9962  -12.3912   13.3961  -10.9746   13.8260  -11.2867   13.7125  -10.6536   14.5644  -13.0006   13.9285 -887.1366  -38.0309
  5.280  -11.3711   13.5741  -11.8741   13.9236  -10.3849   14.5007  -10.7460   14.4524  -10.1413   15.3286  -12.6079   14.4046 -901.2227  -38.3621
  5.290  -10.7894   14.2382  -11.3482   14.5175   -9.8021   15.2602  -10.2297   15.2785   -9.6587   16.1749  -12.1993   14.9157 -911.4546  -38.6970
  5.300  -10.2202   14.9999  -10.8256   15.1880   -9.2409   16.1121   -9.7571   16.1941   -9.2229   17.1046  -11.7751   15.4742 -917.6588  -39.0343
  5.310   -9.6864   15.8627  -10.3214   15.9409   -8.7183   17.0594   -9.3480   17.1952   -8.8507   18.1136  -11.3399   16.0936 -919.7622  -39.3723
  5.320   -9.2099   16.8217   -9.8511   16.7769   -8.2509   18.1010   -9.0190   18.2715   -8.5563   19.1929  -10.9031   16.7865 -917.7974  -39.7096
  5.330   -8.8072   17.8659   -9.4279   17.6929   -7.8537   19.2322   -8.7809   19.4093   -8.3488   20.3312  -10.4778   17.5638 -911.9001  -40.0447
  5.340   -8.4887   18.9829   -9.0619   18.6844   -7.5389   20.4467   -8.6385   20.5956   -8.2331   21.5178  -10.0803   18.4327 -902.3022  -40.3763
  5.350   -8.2594   20.1623   -8.7613   19.7475   -7.3169   21.7386   -8.5929   21.8204   -8.2114   22.7450   -9.7281   19.3968 -889.3183  -40.7031
  5.360   -8.1229   21.3974   -8.5335   20.8800   -7.1972   23.1028   -8.6447   23.0781   -8.2860   24.0083   -9.4398   20.4567 -873.3291  -41.0240
  5.370   -8.0833   22.6846   -8.3870   22.0809   -7.1906   24.5353   -8.7964   24.3661   -8.4613   25.3054   -9.2339   21.6098 -854.7615  -41.3381
  5.380   -8.1479   24.0223   -8.3327   23.3495   -7.3100   26.0321   -9.0540   25.6828   -8.7448   26.6344   -9.1292   22.8507 -834.0671  -41.6447
  5.390   -8.3275   25.4084   -8.3843   24.6843   -7.5714   27.5876   -9.4273   27.0256   -9.1477   27.9921   -9.1445   24.1717 -811.7015  -41.9430
  5.400   -8.6362   26.8386   -8.5583   26.0812   -7.9937   29.1928   -9.9288   28.3890   -9.6838   29.3720   -9.2992   25.5617 -788.1053  -42.2326
  5.410   -9.0909   28.3046   -8.8734   27.5325   -8.5978   30.8336  -10.5733   29.7632  -10.3687   30.7631   -9.6124   27.0061 -763.6872  -42.5132
  5.420   -9.7099   29.7931   -9.3500   29.0257   -9.4053   32.4895  -11.3759   31.1328  -11.2181   32.1489  -10.1029   28.4857 -738.8119  -42.7847
  5.430  -10.5113   31.2845  -10.0082   30.5422  -10.4364   34.1320  -12.3502   32.4770  -12.2463   33.5067  -10.7880   29.9763 -713.7913  -43.0470
  5.440  -11.5111   32.7523  -10.8671   32.0567  -11.7070   35.7246  -13.5066   33.7691  -13.4639   34.8081  -11.6816   31.4479 -688.8798  -43.3002
  5.450  -12.7205   34.1635  -11.9416   33.5367  -13.2261   37.2230  -14.8502   34.9769  -14.8756   36.0190  -12.7931   32.8651 -664.2742  -43.5443
  5.460  -14.1441   35.4795  -13.2405   34.9436  -14.9921   38.5768  -16.3787   36.0647  -16.4784   37.1013  -14.1244   34.1875 -640.1160  -43.7796
  5.470  -15.7771   36.6574  -14.7637   36.2330  -16.9904   39.7323  -18.0809   36.9948  -18.2597   38.0153  -15.6683   35.3716 -616.4972  -44.0061
  5.480  -17.6034   37.6530  -16.5001   37.3582  -19.1913   40.6369  -19.9354   37.7304  -20.1962   38.7220  -17.4065   36.3733 -593.4667  -44.2242
  5.490  -19.5953   38.4245  -18.4258   38.2729  -21.5499   41.2442  -21.9112   38.2385  -22.2538   39.1871  -19.3090   37.1514 -571.0393  -44.4341
  5.500  -21.7131   38.9361  -20.5042   38.9357  -24.0078   41.5192  -23.9681   38.4937  -24.3888   39.3844  -21.3344   37.6717 -549.2034  -44.6359
  5.510  -23.9078   39.1621  -22.6870   39.3145  -26.4974   41.4429  -26.0594   38.4803  -26.5508   39.2986  -23.4325   37.9103 -527.9293  -44.8299
  5.520  -26.1237   39.0897  -24.9180   39.3899  -28.9471   41.0151  -28.1350   38.1948  -28.6859   38.9275  -25.5474   37.8570 -507.1764  -45.0163
  5.530  -28.3038   38.7206  -27.1370   39.1579  -31.2883   40.2546  -30.1457   37.6460  -30.7414   38.2829  -27.6223   37.5164 -486.8998  -45.1952
  5.540  -30.3935   38.0710  -29.2851   38.6302  -33.4608   39.1970  -32.0461   36.8543  -32.6697   37.3889  -29.6044   36.9069 -467.0545  -45.3669
  5.550  -32.3454   37.1695  -31.3098   37.8327  -35.4180   37.8907  -33.7986   35.8496  -34.4319   36.2795  -31.4488   36.0593 -447.6000  -45.5314
  5.560  -34.1223   36.0537  -33.1684   36.8021  -37.1287   36.3910  -35.3748   34.6683  -35.9998   34.9958  -33.1215   35.0122 -428.5022  -45.6888
  5.570  -35.6985   34.7670  -34.8305   35.5825  -38.5778   34.7555  -36.7568   33.3501  -37.3569   33.5813  -34.6004   33.8089 -409.7353  -45.8394
  5.580  -37.0602   33.3539  -36.2785   34.2203  -39.7643   33.0387  -37.9364   31.9348  -38.4976   32.0792  -35.8750   32.4930 -391.2824  -45.9832
  5.590  -38.2043   31.8574  -37.5066   32.7609  -40.6991   31.2890  -38.9143   30.4599  -39.4255   30.5293  -36.9452   31.1053 -373.1351  -46.1203
  5.600  -39.1363   30.3166  -38.5188   31.2459  -41.4010   29.5470  -39.6983   28.9587  -40.1518   28.9663  -37.8189   29.6821 -355.2933  -46.2509
  5.610  -39.8684   28.7649  -39.3267   29.7109  -41.8941   27.8442  -40.3011   27.4595  -40.6924   27.4187  -38.5096   28.2535 -337.7643  -46.3750
  5.620  -40.4173   27.2294  -39.9468   28.1852  -42.2050   26.2040  -40.7388   25.9850  -41.0666   25.9090  -39.0344   26.8435 -320.5611  -46.4928
  5.630  -40.8020   25.7313  -40.3985   26.6912  -42.3605   24.6420  -41.0291   24.5527  -41.2947   24.4536  -39.4122   25.4698 -303.7017  -46.6044
  5.640  -41.0422   24.2862  -40.7019   25.2456  -42.3859   23.1675  -41.1903   23.1754  -41.3968   23.0637  -39.6618   24.1452 -287.2076  -46.7100
  5.650  -41.1577   22.9047  -40.8772   23.8594  -42.3047   21.7850  -41.2401   21.8617  -41.3922   21.7462  -39.8012   22.8776 -271.1025  -46.8096
  5.660  -41.1669   21.5935  -40.9430   22.5398  -42.1373   20.4948  -41.1952   20.6168  -41.2985   20.5045  -39.8471   21.6717 -255.4111  -46.9035
  5.670  -41.0868   20.3561  -40.9165   21.2904  -41.9013   19.2948  -41.0709   19.4432  -41.1314   19.3393  -39.8140   20.5294 -240.1582  -46.9917
  5.680  -40.9325   19.1932  -40.8128   20.1122  -41.6117   18.1809  -40.8809   18.3412  -40.9045   18.2495  -39.7149   19.4508 -225.3681  -47.0745
  5.690  -40.7174   18.1043  -40.6451   19.0047  -41.2806   17.1483  -40.6370   17.3098  -40.6298   17.2326  -39.5609   18.4346 -211.0630  -47.1521
  5.700  -40.4531   17.0870  -40.4247   17.9660  -40.9179   16.1913  -40.3499   16.3466  -40.3171   16.2851  -39.3612   17.4789 -197.2633  -47.2246
  5.710  -40.1494   16.1384  -40.1613   16.9935  -40.5317   15.3043  -40.0284   15.4486  -39.9748   15.4032  -39.1240   16.5811 -183.9865  -47.2922
  5.720  -39.8148   15.2550  -39.8633   16.0842  -40.1285   14.4819  -39.6802   14.6125  -39.6100   14.5827  -38.8560   15.7384 -171.2474  -47.3551
  5.730  -39.4563   14.4330  -39.5376   15.2347  -39.7132   13.7189  -39.3115   13.8344  -39.2282   13.8196  -38.5629   14.9479 -159.0574  -47.4136
  5.740  -39.0799   13.6684  -39.1902   14.4415  -39.2902   13.0104  -38.9279   13.1107  -38.8344   13.1098  -38.2497   14.2068 -147.4244  -47.4678
  5.750  -38.6904   12.9573  -38.8261   13.7012  -38.8625   12.3519  -38.5336   12.4375  -38.4323   12.4494  -37.9205   13.5121 -136.3533  -47.5179
  5.760  -38.2919   12.2959  -38.4495   13.0104  -38.4328   11.7394  -38.1324   11.8112  -38.0253   11.8346  -37.5791   12.8612 -125.8455  -47.5641
  5.770  -37.8879   11.6805  -38.0640   12.3658  -38.0033   11.1692  -37.7273   11.2283  -37.6158   11.2619  -37.2284   12.2513 -115.8991  -47.6067
  5.780  -37.4810   11.1077  -37.6727   11.7642  -37.5757   10.6379  -37.3207   10.6855  -37.2060   10.7282  -36.8711   11.6799 -106.5095  -47.6459
  5.790  -37.0735   10.5742  -37.2780   11.2026  -37.1512   10.1423  -36.9146   10.1796  -36.7977   10.2304  -36.5094   11.1444  -97.6689  -47.6818
  5.800  -36.6672   10.0769  -36.8821   10.6782  -36.7311    9.6797  -36.5107    9.7079  -36.3922    9.7658  -36.1453   10.6425  -89.3673  -47.7146
  5.810  -36.2636    9.6130  -36.4866   10.1882  -36.3161    9.2476  -36.1101    9.2677  -35.9906    9.3317  -35.7804   10.1719  -81.5922  -47.7446
  5.820  -35.8638    9.1799  -36.0931    9.7302  -35.9069    8.8434  -35.7139    8.8564  -35.5938    8.9258  -35.4161    9.7305  -74.3293  -47.7719
  5.830  -35.4687    8.7752  -35.7026    9.3017  -35.5042    8.4651  -35.3228    8.4718  -35.2024    8.5459  -35.0534    9.3163  -67.5622  -47.7967
  5.840  -35.0790    8.3967  -35.3161    8.9006  -35.1082    8.1108  -34.9375    8.1118  -34.8171    8.1900  -34.6934    8.9274  -61.2734  -47.8192
  5.850  -34.6954    8.0423  -34.9344    8.5249  -34.7193    7.7785  -34.5584    7.7746  -34.4381    7.8563  -34.3368    8.5621  -55.4441  -47.8396
  5.860  -34.3181    7.7102  -34.5580    8.1726  -34.3377    7.4667  -34.1859    7.4583  -34.0659    7.5431  -33.9842    8.2186  -50.0546  -47.8580
  5.870  -33.9476    7.3987  -34.1874    7.8420  -33.9635    7.1737  -33.8201    7.1613  -33.7004    7.2488  -33.6361    7.8956  -45.0843  -47.8746
  5.880  -33.5839    7.1061  -33.8230    7.5315  -33.5967    6.8983  -33.4613    6.8823  -33.3420    6.9721  -33.2929    7.5914  -40.5125  -47.8895
  5.890  -33.2272    6.8311  -33.4649    7.2397  -33.2375    6.6390  -33.1094    6.6198  -32.9906    6.7117  -32.9550    7.3048  -36.3180  -47.9028
  5.900  -32.8775    6.5724  -33.1134    6.9651  -32.8857    6.3948  -32.7645    6.3726  -32.6463    6.4662  -32.6225    7.0346  -32.4795  -47.9148
  5.910  -32.5349    6.3287  -32.7685    6.7065  -32.5413    6.1645  -32.4267    6.1396  -32.3090    6.2348  -32.2956    6.7796  -28.9760  -47.9254
  5.920  -32.1994    6.0989  -32.4303    6.4627  -32.2043    5.9472  -32.0958    5.9197  -31.9787    6.0163  -31.9744    6.5388  -25.7866  -47.9349
  5.930  -31.8708    5.8821  -32.0988    6.2327  -31.8744    5.7419  -31.7717    5.7121  -31.6552    5.8098  -31.6590    6.3112  -22.8908  -47.9433
  5.940  -31.5490    5.6772  -31.7739    6.0155  -31.5516    5.5479  -31.4544    5.5159  -31.3385    5.6146  -31.3493    6.0959  -20.2686  -47.9507
  5.950  -31.2340    5.4836  -31.4556    5.8102  -31.2358    5.3642  -31.1437    5.3302  -31.0285    5.4298  -31.0455    5.8921  -17.9005  -47.9573
  5.960  -30.9257    5.3003  -31.1439    5.6160  -30.9267    5.1902  -30.8395    5.1543  -30.7249    5.2546  -30.7474    5.6989  -15.7677  -47.9631
  5.970  -30.6238    5.1267  -30.8385    5.4321  -30.6242    5.0253  -30.5416    4.9876  -30.4277    5.0885  -30.4549    5.5158  -13.8522  -47.9682
  5.980  -30.3283    4.9621  -30.5394    5.2578  -30.3282    4.8688  -30.2500    4.8294  -30.1367    4.9309  -30.1681    5.3419  -12.1366  -47.9727
  5.990  -30.0389    4.8059  -30.2464    5.0925  -30.0385    4.7202  -29.9644    4.6792  -29.8518    4.7812  -29.8868    5.1768  -10.6045  -47.9766
  6.000  -29.7556    4.6576  -29.9595    4.9355  -29.7548    4.5789  -29.6847    4.5365  -29.5728    4.6388  -29.6109    5.0198   -9.2401  -47.9800
  6.010  -29.4781    4.5166  -29.6785    4.7863  -29.4771    4.4446  -29.4107    4.4007  -29.2995    4.5033  -29.3403    4.8705   -8.0287  -47.9829
  6.020  -29.2064    4.3825  -29.4032    4.6445  -29.2052    4.3167  -29.1423    4.2715  -29.0318    4.3743  -29.0750    4.7283   -6.9562  -47.9855
  6.030  -28.9402    4.2548  -29.1334    4.5095  -28.9389    4.1948  -28.8793    4.1484  -28.7695    4.2514  -28.8147    4.5929   -6.0097  -47.9877
  6.040  -28.6794    4.1331  -28.8691    4.3809  -28.6780    4.0786  -28.6216    4.0310  -28.5125    4.1341  -28.5595    4.4637   -5.1768  -47.9896
  6.050  -28.4238    4.0170  -28.6101    4.2583  -28.4224    3.9678  -28.3690    3.9190  -28.2606    4.0222  -28.3091    4.3405   -4.4461  -47.9912
  6.060  -28.1734    3.9063  -28.3562    4.1414  -28.1719    3.8619  -28.1214    3.8120  -28.0136    3.9153  -28.0634    4.2228   -3.8072  -47.9926
  6.070  -27.9278    3.8006  -28.1074    4.0297  -27.9264    3.7608  -27.8786    3.7098  -27.7715    3.8131  -27.8223    4.1103   -3.2502  -47.9938
  6.080  -27.6871    3.6995  -27.8633    3.9230  -27.6857    3.6640  -27.6405    3.6121  -27.5341    3.7153  -27.5858    4.0028   -2.7663  -47.9948
  6.090  -27.4510    3.6028  -27.6240    3.8211  -27.4496    3.5715  -27.4069    3.5186  -27.3012    3.6217  -27.3536    3.8999   -2.3471  -47.9957
  6.100  -27.2194    3.5103  -27.3893    3.7235  -27.2181    3.4828  -27.1777    3.4291  -27.0727    3.5321  -27.1256    3.8014   -1.9853  -47.9964
  6.110  -26.9922    3.4217  -27.1590    3.6301  -26.9910    3.3979  -26.9527    3.3433  -26.8485    3.4462  -26.9019    3.7070   -1.6739  -47.9970
  6.120  -26.7692    3.3369  -26.9330    3.5406  -26.7681    3.3164  -26.7320    3.2611  -26.6284    3.3638  -26.6821    3.6165   -1.4070  -47.9975
  6.130  -26.5503    3.2555  -26.7113    3.4548  -26.5494    3.2383  -26.5152    3.1822  -26.4124    3.2847  -26.4663    3.5296   -1.1788  -47.9980
  6.140  -26.3354    3.1773  -26.4935    3.3725  -26.3347    3.1633  -26.3024    3.1065  -26.2002    3.2087  -26.2543    3.4463   -0.9844  -47.9983
  6.150  -26.1245    3.1024  -26.2798    3.2935  -26.1238    3.0912  -26.0933    3.0338  -25.9919    3.1358  -26.0460    3.3662   -0.8194  -47.9986
  6.160  -25.9172    3.0303  -26.0698    3.2176  -25.9167    3.0219  -25.8880    2.9639  -25.7872    3.0656  -25.8413    3.2893   -0.6799  -47.9989
  6.170  -25.7137    2.9611  -25.8636    3.1447  -25.7133    2.9553  -25.6862    2.8966  -25.5861    2.9981  -25.6401    3.2153   -0.5622  -47.9991
  6.180  -25.5136    2.8945  -25.6610    3.0746  -25.5135    2.8912  -25.4879    2.8320  -25.3885    2.9331  -25.4424    3.1442   -0.4634  -47.9993
  6.190  -25.3171    2.8304  -25.4619    3.0071  -25.3171    2.8295  -25.2929    2.7697  -25.1943    2.8706  -25.2479    3.0756   -0.3807  -47.9994
  6.200  -25.1238    2.7687  -25.2662    2.9422  -25.1240    2.7700  -25.1012    2.7097  -25.0033    2.8103  -25.0567    3.0096   -0.3117  -47.9995
  6.210  -24.9338    2.7093  -25.0739    2.8796  -24.9342    2.7127  -24.9128    2.6519  -24.8155    2.7522  -24.8687    2.9460   -0.2543  -47.9996
  6.220  -24.7470    2.6520  -24.8847    2.8193  -24.7475    2.6574  -24.7274    2.5962  -24.6308    2.6961  -24.6837    2.8847   -0.2068  -47.9997
  6.230  -24.5632    2.5967  -24.6987    2.7612  -24.5639    2.6041  -24.5450    2.5425  -24.4491    2.6420  -24.5016    2.8256   -0.1676  -47.9997
  6.240  -24.3825    2.5434  -24.5157    2.7051  -24.3833    2.5526  -24.3655    2.4906  -24.2703    2.5898  -24.3225    2.7685   -0.1354  -47.9998
  6.250  -24.2046    2.4920  -24.3357    2.6510  -24.2056    2.5028  -24.1889    2.4405  -24.0944    2.5393  -24.1462    2.7133   -0.1090  -47.9998
  6.260  -24.0295    2.4423  -24.1586    2.5987  -24.0308    2.4548  -24.0151    2.3921  -23.9212    2.4905  -23.9726    2.6601   -0.0874  -47.9999
  6.270  -23.8572    2.3943  -23.9842    2.5482  -23.8586    2.4083  -23.8439    2.3454  -23.7507    2.4434  -23.8017    2.6086   -0.0699  -47.9999
  6.280  -23.6876    2.3479  -23.8126    2.4994  -23.6892    2.3634  -23.6754    2.3001  -23.5829    2.3978  -23.6334    2.5588   -0.0557  -47.9999
  6.290  -23.5205    2.3030  -23.6437    2.4522  -23.5223    2.3199  -23.5094    2.2564  -23.4176    2.3536  -23.4677    2.5107   -0.0442  -47.9999
  6.300  -23.3560    2.2596  -23.4773    2.4065  -23.3579    2.2778  -23.3459    2.2141  -23.2547    2.3109  -23.3044    2.4641   -0.0350  -47.9999
  6.310  -23.1940    2.2176  -23.3134    2.3623  -23.1961    2.2370  -23.1849    2.1731  -23.0943    2.2695  -23.1435    2.4190   -0.0276  -48.0000
  6.320  -23.0343    2.1769  -23.1520    2.3196  -23.0366    2.1976  -23.0262    2.1334  -22.9363    2.2294  -22.9850    2.3753   -0.0217  -48.0000
  6.330  -22.8770    2.1375  -22.9929    2.2781  -22.8794    2.1593  -22.8697    2.0949  -22.7805    2.1905  -22.8288    2.3330   -0.0170  -48.0000
  6.340  -22.7220    2.0993  -22.8362    2.2379  -22.7246    2.1222  -22.7156    2.0577  -22.6270    2.1528  -22.6748    2.2919   -0.0132  -48.0000
  6.350  -22.5691    2.0623  -22.6817    2.1990  -22.5719    2.0862  -22.5636    2.0215  -22.4756    2.1163  -22.5229    2.2521   -0.0103  -48.0000
  6.360  -22.4185    2.0264  -22.5295    2.1612  -22.4214    2.0512  -22.4137    1.9865  -22.3264    2.0808  -22.3732    2.2135   -0.0080  -48.0000
  6.370  -22.2700    1.9915  -22.3794    2.1246  -22.2730    2.0173  -22.2660    1.9524  -22.1793    2.0463  -22.2256    2.1761   -0.0062  -48.0000
  6.380  -22.1235    1.9577  -22.2314    2.0890  -22.1267    1.9844  -22.1202    1.9194  -22.0341    2.0128  -22.0800    2.1397   -0.0047  -48.0000
  6.390  -21.9790    1.9249  -22.0854    2.0545  -21.9824    1.9524  -21.9764    1.8873  -21.8910    1.9803  -21.9364    2.1044   -0.0036  -48.0000
  6.400  -21.8365    1.8930  -21.9415    2.0210  -21.8400    1.9213  -21.8346    1.8562  -21.7498    1.9487  -21.7947    2.0701   -0.0028  -48.0000
  6.410  -21.6959    1.8620  -21.7994    1.9884  -21.6995    1.8911  -21.6947    1.8259  -21.6104    1.9180  -21.6549    2.0367   -0.0021  -48.0000
  6.420  -21.5572    1.8319  -21.6593    1.9567  -21.5609    1.8617  -21.5566    1.7965  -21.4729    1.8882  -21.5169    2.0043   -0.0016  -48.0000
  6.430  -21.4202    1.8027  -21.5211    1.9259  -21.4242    1.8331  -21.4202    1.7679  -21.3372    1.8591  -21.3807    1.9728   -0.0012  -48.0000
  6.440  -21.2851    1.7742  -21.3846    1.8960  -21.2892    1.8053  -21.2857    1.7400  -21.2033    1.8308  -21.2463    1.9421   -0.0009  -48.0000
  6.450  -21.1517    1.7465  -21.2500    1.8668  -21.1559    1.7782  -21.1529    1.7129  -21.0710    1.8033  -21.1136    1.9123   -0.0007  -48.0000
  6.460  -21.0201    1.7196  -21.1170    1.8385  -21.0244    1.7519  -21.0217    1.6866  -20.9405    1.7765  -20.9825    1.8833   -0.0005  -48.0000
  6.470  -20.8900    1.6934  -20.9858    1.8109  -20.8945    1.7262  -20.8922    1.6609  -20.8115    1.7504  -20.8532    1.8550   -0.0004  -48.0000
  6.480  -20.7617    1.6678  -20.8562    1.7840  -20.7662    1.7012  -20.7643    1.6359  -20.6842    1.7249  -20.7254    1.8274   -0.0003  -48.0000
  6.490  -20.6349    1.6430  -20.7283    1.7578  -20.6395    1.6768  -20.6380    1.6116  -20.5585    1.7002  -20.5992    1.8006   -0.0002  -48.0000
  6.500  -20.5096    1.6187  -20.6019    1.7323  -20.5144    1.6530  -20.5132    1.5879  -20.4342    1.6760  -20.4745    1.7745   -0.0002  -48.0000
  6.510  -20.3859    1.5951  -20.4771    1.7074  -20.3908    1.6299  -20.3899    1.5647  -20.3115    1.6524  -20.3513    1.7490   -0.0001  -48.0000
  6.520  -20.2637    1.5721  -20.3537    1.6832  -20.2687    1.6073  -20.2681    1.5422  -20.1902    1.6294  -20.2296    1.7241   -0.0001  -48.0000
  6.530  -20.1429    1.5497  -20.2319    1.6595  -20.1480    1.5852  -20.1477    1.5202  -20.0704    1.6070  -20.1094    1.6999   -0.0001  -48.0000
  6.540  -20.0235    1.5278  -20.1115    1.6365  -20.0288    1.5637  -20.0287    1.4988  -19.9520    1.5851  -19.9905    1.6762   -0.0000  -48.0000
  6.550  -19.9056    1.5064  -19.9925    1.6140  -19.9109    1.5427  -19.9111    1.4778  -19.8349    1.5638  -19.8730    1.6532   -0.0000  -48.0000
  6.560  -19.7890    1.4856  -19.8750    1.5920  -19.7944    1.5222  -19.7949    1.4574  -19.7193    1.5429  -19.7569    1.6306   -0.0000  -48.0000
  6.570  -19.6738    1.4652  -19.7588    1.5706  -19.6793    1.5021  -19.6800    1.4375  -19.6049    1.5225  -19.6422    1.6087   -0.0000  -48.0000
  6.580  -19.5598    1.4454  -19.6439    1.5496  -19.5654    1.4826  -19.5664    1.4180  -19.4918    1.5026  -19.5287    1.5872   -0.0000  -48.0000
  6.590  -19.4472    1.4260  -19.5303    1.5292  -19.4529    1.4634  -19.4541    1.3990  -19.3800    1.4832  -19.4165    1.5662   -0.0000  -48.0000
  6.600  -19.3358    1.4070  -19.4180    1.5092  -19.3416    1.4448  -19.3430    1.3804  -19.2694    1.4642  -19.3055    1.5457   -0.0000  -48.0000
  6.610  -19.2257    1.3885  -19.3070    1.4897  -19.2315    1.4265  -19.2331    1.3622  -19.1601    1.4456  -19.1958    1.5257   -0.0000  -48.0000
  6.620  -19.1167    1.3704  -19.1972    1.4706  -19.1227    1.4086  -19.1245    1.3445  -19.0519    1.4274  -19.0872    1.5061   -0.0000  -48.0000
  6.630  -19.0090    1.3527  -19.0886    1.4520  -19.0150    1.3911  -19.0170    1.3272  -18.9450    1.4096  -18.9799    1.4870   -0.0000  -48.0000
  6.640  -18.9024    1.3355  -18.9812    1.4337  -18.9085    1.3741  -18.9106    1.3102  -18.8391    1.3923  -18.8737    1.4682   -0.0000  -48.0000
  6.650  -18.7970    1.3185  -18.8749    1.4159  -18.8032    1.3573  -18.8055    1.2936  -18.7344    1.3752  -18.7686    1.4499   -0.0000  -48.0000
  6.660  -18.6926    1.3020  -18.7698    1.3984  -18.6989    1.3410  -18.7014    1.2774  -18.6308    1.3586  -18.6647    1.4320   -0.0000  -48.0000
  6.670  -18.5894    1.2858  -18.6658    1.3813  -18.5958    1.3249  -18.5984    1.2615  -18.5283    1.3423  -18.5618    1.4145   -0.0000  -48.0000
  6.680  -18.4873    1.2700  -18.5629    1.3646  -18.4937    1.3093  -18.4965    1.2460  -18.4269    1.3264  -18.4600    1.3973   -0.0000  -48.0000
  6.690  -18.3862    1.2545  -18.4611    1.3483  -18.3927    1.2939  -18.3956    1.2308  -18.3265    1.3107  -18.3593    1.3805   -0.0000  -48.0000
  6.700  -18.2862    1.2393  -18.3604    1.3323  -18.2927    1.2789  -18.2958    1.2159  -18.2271    1.2954  -18.2596    1.3641   -0.0000  -48.0000
  6.710  -18.1872    1.2245  -18.2606    1.3166  -18.1938    1.2641  -18.1969    1.2013  -18.1288    1.2805  -18.1609    1.3480   -0.0000  -48.0000
  6.720  -18.0892    1.2100  -18.1619    1.3012  -18.0958    1.2497  -18.0991    1.1870  -18.0314    1.2658  -18.0632    1.3322   -0.0000  -48.0000
  6.730  -17.9921    1.1957  -18.0642    1.2862  -17.9989    1.2355  -18.0023    1.1730  -17.9350    1.2514  -17.9665    1.3168   -0.0000  -48.0000
  6.740  -17.8961    1.1818  -17.9675    1.2714  -17.9029    1.2217  -17.9064    1.1593  -17.8396    1.2373  -17.8707    1.3016   -0.0000  -48.0000
  6.750  -17.8010    1.1681  -17.8717    1.2569  -17.8078    1.2081  -17.8114    1.1459  -17.7451    1.2234  -17.7759    1.2868   -0.0000  -48.0000
  6.760  -17.7068    1.1547  -17.7769    1.2428  -17.7137    1.1947  -17.7174    1.1328  -17.6516    1.2099  -17.6820    1.2723   -0.0000  -48.0000
  6.770  -17.6136    1.1415  -17.6830    1.2289  -17.6205    1.1817  -17.6243    1.1199  -17.5589    1.1966  -17.5890    1.2580   -0.0000  -48.0000
  6.780  -17.5212    1.1287  -17.5901    1.2153  -17.5282    1.1688  -17.5321    1.1072  -17.4671    1.1836  -17.4970    1.2440   -0.0000  -48.0000
  6.790  -17.4298    1.1160  -17.4980    1.2019  -17.4368    1.1562  -17.4408    1.0948  -17.3763    1.1708  -17.4058    1.2303   -0.0000  -48.0000
  6.800  -17.3392    1.1037  -17.4068    1.1888  -17.3463    1.1439  -17.3503    1.0826  -17.2862    1.1582  -17.3155    1.2168   -0.0000  -48.0000
  6.810  -17.2495    1.0915  -17.3165    1.1760  -17.2566    1.1318  -17.2607    1.0707  -17.1971    1.1459  -17.2260    1.2037   -0.0000  -48.0000
  6.820  -17.1606    1.0796  -17.2271    1.1633  -17.1678    1.1199  -17.1720    1.0590  -17.1087    1.1338  -17.1374    1.1907   -0.0000  -48.0000
  6.830  -17.0726    1.0679  -17.1385    1.1510  -17.0798    1.1082  -17.0841    1.0475  -17.0212    1.1219  -17.0496    1.1780   -0.0000  -48.0000
  6.840  -16.9853    1.0565  -17.0507    1.1388  -16.9926    1.0968  -16.9969    1.0362  -16.9345    1.1103  -16.9626    1.1655   -0.0000  -48.0000
  6.850  -16.8989    1.0452  -16.9637    1.1269  -16.9062    1.0855  -16.9106    1.0252  -16.8486    1.0988  -16.8764    1.1533   -0.0000  -48.0000
  6.860  -16.8133    1.0341  -16.8775    1.1152  -16.8206    1.0744  -16.8251    1.0143  -16.7635    1.0876  -16.7910    1.1413   -0.0000  -48.0000
  6.870  -16.7284    1.0233  -16.7922    1.1037  -16.7358    1.0636  -16.7403    1.0036  -16.6791    1.0766  -16.7064    1.1295   -0.0000  -48.0000
  6.880  -16.6443    1.0126  -16.7076    1.0924  -16.6517    1.0529  -16.6563    0.9932  -16.5955    1.0657  -16.6225    1.1179   -0.0000  -48.0000
  6.890  -16.5610    1.0022  -16.6237    1.0813  -16.5684    1.0424  -16.5730    0.9829  -16.5126    1.0551  -16.5394    1.1065   -0.0000  -48.0000
  6.900  -16.4784    0.9919  -16.5406    1.0704  -16.4859    1.0321  -16.4905    0.9728  -16.4305    1.0446  -16.4570    1.0953   -0.0000  -48.0000
  6.910  -16.3965    0.9818  -16.4583    1.0597  -16.4040    1.0220  -16.4087    0.9628  -16.3491    1.0343  -16.3754    1.0843   -0.0000  -48.0000
  6.920  -16.3154    0.9719  -16.3767    1.0492  -16.3229    1.0121  -16.3277    0.9531  -16.2684    1.0242  -16.2944    1.0735   -0.0000  -48.0000
  6.930  -16.2349    0.9621  -16.2958    1.0388  -16.2425    1.0023  -16.2473    0.9435  -16.1885    1.0143  -16.2142    1.0629   -0.0000  -48.0000
  6.940  -16.1552    0.9526  -16.2156    1.0287  -16.1628    0.9927  -16.1676    0.9341  -16.1092    1.0045  -16.1347    1.0525   -0.0000  -48.0000
  6.950  -16.0761    0.9432  -16.1361    1.0187  -16.0838    0.9832  -16.0886    0.9248  -16.0306    0.9949  -16.0558    1.0422   -0.0000  -48.0000
  6.960  -15.9978    0.9339  -16.0573    1.0089  -16.0054    0.9739  -16.0103    0.9157  -15.9526    0.9854  -15.9777    1.0321   -0.0000  -48.0000
  6.970  -15.9201    0.9248  -15.9791    0.9992  -15.9277    0.9648  -15.9327    0.9068  -15.8753    0.9761  -15.9001    1.0222   -0.0000  -48.0000
  6.980  -15.8430    0.9159  -15.9017    0.9897  -15.8507    0.9558  -15.8557    0.8980  -15.7987    0.9670  -15.8233    1.0125   -0.0000  -48.0000
  6.990  -15.7666    0.9071  -15.8249    0.9803  -15.7743    0.9469  -15.7793    0.8893  -15.7227    0.9580  -15.7471    1.0029   -0.0000  -48.0000
  7.000  -15.6909    0.8984  -15.7487    0.9712  -15.6986    0.9382  -15.7036    0.8808  -15.6474    0.9492  -15.6715    0.9934   -0.0000  -48.0000
  7.010  -15.6157    0.8899  -15.6732    0.9621  -15.6235    0.9296  -15.6285    0.8724  -15.5726    0.9405  -15.5965    0.9842   -0.0000  -48.0000
  7.020  -15.5412    0.8815  -15.5982    0.9532  -15.5490    0.9212  -15.5541    0.8642  -15.4985    0.9319  -15.5222    0.9750   -0.0000  -48.0000
  7.030  -15.4673    0.8733  -15.5240    0.9445  -15.4751    0.9129  -15.4802    0.8561  -15.4250    0.9235  -15.4485    0.9660   -0.0000  -48.0000
  7.040  -15.3940    0.8652  -15.4503    0.9358  -15.4018    0.9047  -15.4069    0.8481  -15.3521    0.9152  -15.3754    0.9572   -0.0000  -48.0000
  7.050  -15.3213    0.8572  -15.3772    0.9274  -15.3291    0.8967  -15.3343    0.8403  -15.2798    0.9070  -15.3028    0.9485   -0.0000  -48.0000
  7.060  -15.2492    0.8494  -15.3047    0.9190  -15.2570    0.8888  -15.2622    0.8325  -15.2080    0.8989  -15.2309    0.9399   -0.0000  -48.0000
  7.070  -15.1776    0.8417  -15.2328    0.9108  -15.1855    0.8810  -15.1907    0.8249  -15.1369    0.8910  -15.1595    0.9315   -0.0000  -48.0000
  7.080  -15.1067    0.8341  -15.1615    0.9027  -15.1145    0.8733  -15.1197    0.8174  -15.0663    0.8832  -15.0887    0.9232   -0.0000  -48.0000
  7.090  -15.0363    0.8266  -15.0908    0.8947  -15.0441    0.8657  -15.0494    0.8101  -14.9962    0.8755  -15.0185    0.9150   -0.0000  -48.0000
  7.100  -14.9664    0.8192  -15.0206    0.8869  -14.9743    0.8583  -14.9795    0.8028  -14.9267    0.8680  -14.9488    0.9070   -0.0000  -48.0000
  7.110  -14.8971    0.8120  -14.9509    0.8792  -14.9050    0.8509  -14.9102    0.7957  -14.8578    0.8605  -14.8796    0.8991   -0.0000  -48.0000
  7.120  -14.8283    0.8048  -14.8818    0.8715  -14.8362    0.8437  -14.8415    0.7886  -14.7893    0.8532  -14.8110    0.8913   -0.0000  -48.0000
  7.130  -14.7601    0.7978  -14.8133    0.8640  -14.7680    0.8365  -14.7733    0.7817  -14.7214    0.8459  -14.7429    0.8836   -0.0000  -48.0000
  7.140  -14.6924    0.7908  -14.7453    0.8567  -14.7003    0.8295  -14.7056    0.7749  -14.6541    0.8388  -14.6754    0.8760   -0.0000  -48.0000
  7.150  -14.6252    0.7840  -14.6778    0.8494  -14.6331    0.8226  -14.6384    0.7681  -14.5872    0.8318  -14.6084    0.8685   -0.0000  -48.0000
  7.160  -14.5585    0.7773  -14.6108    0.8422  -14.5664    0.8158  -14.5718    0.7615  -14.5209    0.8248  -14.5418    0.8612   -0.0000  -48.0000
  7.170  -14.4923    0.7707  -14.5443    0.8351  -14.5003    0.8091  -14.5056    0.7550  -14.4550    0.8180  -14.4758    0.8539   -0.0000  -48.0000
  7.180  -14.4267    0.7641  -14.4783    0.8282  -14.4346    0.8024  -14.4399    0.7485  -14.3897    0.8113  -14.4103    0.8468   -0.0000  -48.0000
  7.190  -14.3615    0.7577  -14.4129    0.8213  -14.3694    0.7959  -14.3748    0.7422  -14.3248    0.8047  -14.3452    0.8397   -0.0000  -48.0000
  7.200  -14.2968    0.7513  -14.3479    0.8145  -14.3047    0.7894  -14.3101    0.7359  -14.2604    0.7981  -14.2807    0.8328   -0.0000  -48.0000
  7.210  -14.2326    0.7451  -14.2834    0.8079  -14.2405    0.7831  -14.2459    0.7298  -14.1965    0.7917  -14.2166    0.8260   -0.0000  -48.0000
  7.220  -14.1688    0.7389  -14.2194    0.8013  -14.1767    0.7768  -14.1821    0.7237  -14.1330    0.7853  -14.1530    0.8192   -0.0000  -48.0000
  7.230  -14.1055    0.7329  -14.1558    0.7948  -14.1135    0.7706  -14.1188    0.7177  -14.0701    0.7790  -14.0899    0.8126   -0.0000  -48.0000
  7.240  -14.0427    0.7269  -14.0928    0.7884  -14.0506    0.7646  -14.0560    0.7118  -14.0076    0.7729  -14.0272    0.8060   -0.0000  -48.0000
  7.250  -13.9803    0.7210  -14.0302    0.7821  -13.9883    0.7585  -13.9937    0.7060  -13.9455    0.7668  -13.9649    0.7995   -0.0000  -48.0000
  7.260  -13.9184    0.7151  -13.9680    0.7759  -13.9264    0.7526  -13.9318    0.7002  -13.8839    0.7608  -13.9032    0.7932   -0.0000  -48.0000
  7.270  -13.8570    0.7094  -13.9063    0.7697  -13.8649    0.7468  -13.8703    0.6946  -13.8227    0.7548  -13.8418    0.7869   -0.0000  -48.0000
  7.280  -13.7959    0.7037  -13.8450    0.7637  -13.8039    0.7410  -13.8093    0.6890  -13.7619    0.7490  -13.7809    0.7807   -0.0000  -48.0000
  7.290  -13.7353    0.6982  -13.7842    0.7577  -13.7433    0.7353  -13.7487    0.6835  -13.7016    0.7432  -13.7205    0.7746   -0.0000  -48.0000
  7.300  -13.6752    0.6927  -13.7238    0.7518  -13.6831    0.7297  -13.6885    0.6780  -13.6417    0.7375  -13.6604    0.7685   -0.0000  -48.0000
  7.310  -13.6154    0.6872  -13.6638    0.7460  -13.6233    0.7241  -13.6287    0.6727  -13.5823    0.7319  -13.6008    0.7626   -0.0000  -48.0000
  7.320  -13.5561    0.6819  -13.6043    0.7402  -13.5640    0.7187  -13.5694    0.6674  -13.5232    0.7263  -13.5416    0.7567   -0.0000  -48.0000
  7.330  -13.4972    0.6766  -13.5451    0.7346  -13.5051    0.7133  -13.5105    0.6622  -13.4646    0.7209  -13.4828    0.7509   -0.0000  -48.0000
  7.340  -13.4387    0.6714  -13.4864    0.7290  -13.4466    0.7079  -13.4520    0.6570  -13.4063    0.7155  -13.4245    0.7452   -0.0000  -48.0000
  7.350  -13.3805    0.6662  -13.4281    0.7235  -13.3885    0.7027  -13.3939    0.6520  -13.3485    0.7101  -13.3665    0.7396   -0.0000  -48.0000
  7.360  -13.3228    0.6611  -13.3702    0.7180  -13.3308    0.6975  -13.3362    0.6469  -13.2910    0.7049  -13.3089    0.7340   -0.0000  -48.0000
  7.370  -13.2655    0.6561  -13.3127    0.7127  -13.2734    0.6924  -13.2788    0.6420  -13.2340    0.6997  -13.2517    0.7285   -0.0000  -48.0000
  7.380  -13.2086    0.6512  -13.2556    0.7074  -13.2165    0.6873  -13.2219    0.6371  -13.1773    0.6945  -13.1949    0.7231   -0.0000  -48.0000
  7.390  -13.1521    0.6463  -13.1989    0.7021  -13.1600    0.6823  -13.1654    0.6323  -13.1210    0.6895  -13.1385    0.7177   -0.0000  -48.0000
  7.400  -13.0959    0.6415  -13.1425    0.6970  -13.1038    0.6774  -13.1092    0.6275  -13.0651    0.6845  -13.0824    0.7124   -0.0000  -48.0000
  7.410  -13.0401    0.6367  -13.0866    0.6919  -13.0480    0.6725  -13.0534    0.6228  -13.0096    0.6795  -13.0268    0.7072   -0.0000  -48.0000
  7.420  -12.9847    0.6320  -13.0310    0.6868  -12.9926    0.6677  -12.9980    0.6182  -12.9544    0.6747  -12.9715    0.7021   -0.0000  -48.0000
  7.430  -12.9296    0.6274  -12.9758    0.6819  -12.9375    0.6629  -12.9429    0.6136  -12.8996    0.6698  -12.9166    0.6970   -0.0000  -48.0000
  7.440  -12.8750    0.6228  -12.9209    0.6769  -12.8828    0.6583  -12.8882    0.6091  -12.8452    0.6651  -12.8620    0.6919   -0.0000  -48.0000
  7.450  -12.8206    0.6183  -12.8664    0.6721  -12.8285    0.6536  -12.8339    0.6046  -12.7911    0.6604  -12.8078    0.6870   -0.0000  -48.0000
  7.460  -12.7667    0.6138  -12.8123    0.6673  -12.7745    0.6490  -12.7799    0.6002  -12.7374    0.6558  -12.7539    0.6821   -0.0000  -48.0000
  7.470  -12.7130    0.6094  -12.7585    0.6626  -12.7209    0.6445  -12.7263    0.5958  -12.6840    0.6512  -12.7004    0.6773   -0.0000  -48.0000
  7.480  -12.6598    0.6051  -12.7051    0.6579  -12.6676    0.6401  -12.6730    0.5915  -12.6309    0.6467  -12.6473    0.6725   -0.0000  -48.0000
  7.490  -12.6068    0.6008  -12.6520    0.6533  -12.6146    0.6356  -12.6201    0.5873  -12.5782    0.6422  -12.5944    0.6678   -0.0000  -48.0000
  7.500  -12.5542    0.5965  -12.5993    0.6487  -12.5620    0.6313  -12.5674    0.5831  -12.5259    0.6378  -12.5420    0.6631   -0.0000  -48.0000
  7.510  -12.5020    0.5924  -12.5469    0.6442  -12.5097    0.6270  -12.5152    0.5790  -12.4738    0.6334  -12.4898    0.6585   -0.0000  -48.0000
  7.520  -12.4500    0.5882  -12.4948    0.6398  -12.4578    0.6227  -12.4632    0.5749  -12.4221    0.6291  -12.4380    0.6540   -0.0000  -48.0000
  7.530  -12.3984    0.5841  -12.4431    0.6354  -12.4062    0.6185  -12.4116    0.5708  -12.3707    0.6249  -12.3865    0.6495   -0.0000  -48.0000
  7.540  -12.3471    0.5801  -12.3917    0.6310  -12.3549    0.6144  -12.3603    0.5668  -12.3197    0.6207  -12.3353    0.6450   -0.0000  -48.0000
  7.550  -12.2962    0.5761  -12.3406    0.6267  -12.3039    0.6103  -12.3094    0.5629  -12.2689    0.6165  -12.2845    0.6406   -0.0000  -48.0000
  7.560  -12.2455    0.5722  -12.2898    0.6225  -12.2533    0.6062  -12.2587    0.5590  -12.2185    0.6124  -12.2340    0.6363   -0.0000  -48.0000
  7.570  -12.1952    0.5683  -12.2394    0.6183  -12.2029    0.6022  -12.2084    0.5551  -12.1684    0.6083  -12.1837    0.6320   -0.0000  -48.0000
  7.580  -12.1452    0.5644  -12.1893    0.6141  -12.1529    0.5982  -12.1583    0.5513  -12.1186    0.6043  -12.1338    0.6278   -0.0000  -48.0000
  7.590  -12.0954    0.5606  -12.1394    0.6100  -12.1031    0.5943  -12.1086    0.5475  -12.0691    0.6004  -12.0842    0.6236   -0.0000  -48.0000
  7.600  -12.0460    0.5569  -12.0899    0.6060  -12.0537    0.5904  -12.0592    0.5438  -12.0199    0.5964  -12.0349    0.6195   -0.0000  -48.0000
  7.610  -11.9969    0.5532  -12.0407    0.6020  -12.0046    0.5866  -12.0100    0.5401  -11.9710    0.5926  -11.9859    0.6154   -0.0000  -48.0000
  7.620  -11.9481    0.5495  -11.9918    0.5980  -11.9557    0.5828  -11.9612    0.5365  -11.9224    0.5888  -11.9372    0.6114   -0.0000  -48.0000
  7.630  -11.8996    0.5459  -11.9432    0.5941  -11.9072    0.5791  -11.9127    0.5329  -11.8741    0.5850  -11.8888    0.6074   -0.0000  -48.0000
  7.640  -11.8513    0.5423  -11.8949    0.5903  -11.8589    0.5754  -11.8644    0.5294  -11.8260    0.5812  -11.8407    0.6035   -0.0000  -48.0000
  7.650  -11.8034    0.5388  -11.8468    0.5865  -11.8110    0.5717  -11.8165    0.5259  -11.7783    0.5775  -11.7928    0.5996   -0.0000  -48.0000
  7.660  -11.7557    0.5353  -11.7991    0.5827  -11.7633    0.5681  -11.7688    0.5224  -11.7308    0.5739  -11.7453    0.5957   -0.0000  -48.0000
  7.670  -11.7083    0.5318  -11.7516    0.5789  -11.7159    0.5646  -11.7214    0.5190  -11.6836    0.5703  -11.6980    0.5919   -0.0000  -48.0000
  7.680  -11.6612    0.5284  -11.7045    0.5753  -11.6688    0.5610  -11.6743    0.5156  -11.6367    0.5667  -11.6510    0.5882   -0.0000  -48.0000
  7.690  -11.6144    0.5250  -11.6576    0.5716  -11.6219    0.5575  -11.6274    0.5122  -11.5901    0.5632  -11.6042    0.5845   -0.0000  -48.0000
  7.700  -11.5678    0.5217  -11.6109    0.5680  -11.5753    0.5541  -11.5808    0.5089  -11.5437    0.5597  -11.5578    0.5808   -0.0000  -48.0000
  7.710  -11.5215    0.5184  -11.5646    0.5644  -11.5290    0.5507  -11.5345    0.5056  -11.4976    0.5563  -11.5116    0.5772   -0.0000  -48.0000
  7.720  -11.4755    0.5151  -11.5185    0.5609  -11.4830    0.5473  -11.4885    0.5024  -11.4518    0.5528  -11.4657    0.5736   -0.0000  -48.0000
  7.730  -11.4297    0.5119  -11.4727    0.5574  -11.4372    0.5440  -11.4427    0.4992  -11.4062    0.5495  -11.4200    0.5700   -0.0000  -48.0000
  7.740  -11.3842    0.5087  -11.4271    0.5540  -11.3916    0.5407  -11.3972    0.4960  -11.3609    0.5461  -11.3746    0.5665   -0.0000  -48.0000
  7.750  -11.3389    0.5056  -11.3818    0.5506  -11.3464    0.5374  -11.3519    0.4929  -11.3159    0.5429  -11.3295    0.5631   -0.0000  -48.0000
  7.760  -11.2939    0.5025  -11.3368    0.5472  -11.3014    0.5342  -11.3069    0.4898  -11.2710    0.5396  -11.2846    0.5596   -0.0000  -48.0000
  7.770  -11.2492    0.4994  -11.2920    0.5438  -11.2566    0.5310  -11.2621    0.4867  -11.2265    0.5364  -11.2399    0.5562   -0.0000  -48.0000
  7.780  -11.2047    0.4964  -11.2475    0.5405  -11.2121    0.5278  -11.2176    0.4837  -11.1822    0.5332  -11.1955    0.5529   -0.0000  -48.0000
  7.790  -11.1604    0.4934  -11.2032    0.5373  -11.1678    0.5247  -11.1734    0.4807  -11.1381    0.5300  -11.1514    0.5496   -0.0000  -48.0000
  7.800  -11.1164    0.4904  -11.1592    0.5341  -11.1238    0.5216  -11.1293    0.4777  -11.0943    0.5269  -11.1075    0.5463   -0.0000  -48.0000
  7.810  -11.0726    0.4875  -11.1154    0.5309  -11.0800    0.5186  -11.0856    0.4748  -11.0507    0.5239  -11.0638    0.5431   -0.0000  -48.0000
  7.820  -11.0291    0.4846  -11.0719    0.5277  -11.0364    0.5156  -11.0420    0.4719  -11.0074    0.5208  -11.0204    0.5399   -0.0000  -48.0000
  7.830  -10.9858    0.4817  -11.0286    0.5246  -10.9931    0.5126  -10.9987    0.4691  -10.9643    0.5178  -10.9772    0.5367   -0.0000  -48.0000
  7.840  -10.9427    0.4789  -10.9855    0.5215  -10.9500    0.5096  -10.9556    0.4662  -10.9214    0.5148  -10.9343    0.5336   -0.0000  -48.0000
  7.850  -10.8999    0.4761  -10.9427    0.5184  -10.9072    0.5067  -10.9128    0.4634  -10.8787    0.5119  -10.8915    0.5305   -0.0000  -48.0000
  7.860  -10.8573    0.4733  -10.9001    0.5154  -10.8645    0.5038  -10.8702    0.4607  -10.8363    0.5090  -10.8490    0.5274   -0.0000  -48.0000
  7.870  -10.8149    0.4706  -10.8577    0.5124  -10.8221    0.5010  -10.8278    0.4579  -10.7941    0.5061  -10.8068    0.5244   -0.0000  -48.0000
  7.880  -10.7727    0.4678  -10.8156    0.5095  -10.7799    0.4982  -10.7856    0.4552  -10.7521    0.5033  -10.7647    0.5214   -0.0000  -48.0000
  7.890  -10.7308    0.4652  -10.7737    0.5066  -10.7380    0.4954  -10.7437    0.4525  -10.7104    0.5005  -10.7229    0.5185   -0.0000  -48.0000
  7.900  -10.6890    0.4625  -10.7320    0.5037  -10.6962    0.4926  -10.7019    0.4499  -10.6689    0.4977  -10.6813    0.5155   -0.0000  -48.0000
  7.910  -10.6475    0.4599  -10.6905    0.5008  -10.6547    0.4899  -10.6604    0.4472  -10.6275    0.4949  -10.6399    0.5126   -0.0000  -48.0000
  7.920  -10.6062    0.4573  -10.6492    0.4980  -10.6134    0.4872  -10.6191    0.4447  -10.5864    0.4922  -10.5987    0.5098   -0.0000  -48.0000
  7.930  -10.5651    0.4548  -10.6082    0.4952  -10.5723    0.4845  -10.5780    0.4421  -10.5455    0.4895  -10.5577    0.5070   -0.0000  -48.0000
  7.940  -10.5243    0.4522  -10.5674    0.4924  -10.5314    0.4819  -10.5372    0.4395  -10.5048    0.4869  -10.5170    0.5042   -0.0000  -48.0000
  7.950  -10.4836    0.4497  -10.5267    0.4897  -10.4907    0.4793  -10.4965    0.4370  -10.4643    0.4842  -10.4764    0.5014   -0.0000  -48.0000
  7.960  -10.4431    0.4473  -10.4863    0.4870  -10.4502    0.4767  -10.4560    0.4346  -10.4241    0.4816  -10.4360    0.4987   -0.0000  -48.0000
  7.970  -10.4029    0.4448  -10.4461    0.4843  -10.4099    0.4742  -10.4157    0.4321  -10.3840    0.4791  -10.3959    0.4960   -0.0000  -48.0000
  7.980  -10.3628    0.4424  -10.4061    0.4816  -10.3698    0.4716  -10.3757    0.4297  -10.3441    0.4765  -10.3559    0.4933   -0.0000  -48.0000
  7.990  -10.3229    0.4400  -10.3663    0.4790  -10.3299    0.4691  -10.3358    0.4273  -10.3044    0.4740  -10.3162    0.4907   -0.0000  -48.0000
  8.000  -10.2832    0.4377  -10.3267    0.4764  -10.2902    0.4667  -10.2961    0.4249  -10.2649    0.4716  -10.2766    0.4881   -0.0000  -48.0000
  8.010  -10.2437    0.4353  -10.2873    0.4738  -10.2507    0.4642  -10.2566    0.4225  -10.2256    0.4691  -10.2373    0.4855   -0.0000  -48.0000
  8.020  -10.2044    0.4330  -10.2481    0.4713  -10.2114    0.4618  -10.2173    0.4202  -10.1865    0.4667  -10.1981    0.4830   -0.0000  -48.0000
  8.030  -10.1653    0.4308  -10.2091    0.4688  -10.1722    0.4595  -10.1782    0.4179  -10.1476    0.4643  -10.1591    0.4805   -0.0000  -48.0000
  8.040  -10.1264    0.4285  -10.1703    0.4663  -10.1333    0.4571  -10.1393    0.4156  -10.1088    0.4619  -10.1203    0.4780   -0.0000  -48.0000
  8.050  -10.0876    0.4263  -10.1317    0.4639  -10.0945    0.4548  -10.1006    0.4134  -10.0703    0.4596  -10.0817    0.4755   -0.0000  -48.0000
  8.060  -10.0491    0.4241  -10.0932    0.4614  -10.0559    0.4525  -10.0620    0.4112  -10.0319    0.4573  -10.0432    0.4731   -0.0000  -48.0000
  8.070  -10.0107    0.4220  -10.0550    0.4590  -10.0175    0.4502  -10.0236    0.4090   -9.9937    0.4550  -10.0050    0.4707   -0.0000  -48.0000
  8.080   -9.9725    0.4198  -10.0169    0.4567   -9.9793    0.4480   -9.9854    0.4068   -9.9557    0.4527   -9.9669    0.4683   -0.0000  -48.0000
  8.090   -9.9344    0.4177   -9.9790    0.4543   -9.9412    0.4457   -9.9474    0.4046   -9.9178    0.4505   -9.9290    0.4660   -0.0000  -48.0000
  8.100   -9.8966    0.4156   -9.9413    0.4520   -9.9033    0.4435   -9.9095    0.4025   -9.8802    0.4483   -9.8912    0.4637   -0.0000  -48.0000
  8.110   -9.8589    0.4136   -9.9037    0.4497   -9.8656    0.4414   -9.8719    0.4004   -9.8427    0.4461   -9.8537    0.4614   -0.0000  -48.0000
  8.120   -9.8213    0.4115   -9.8664    0.4474   -9.8281    0.4392   -9.8343    0.3983   -9.8053    0.4440   -9.8163    0.4591   -0.0000  -48.0000
  8.130   -9.7840    0.4095   -9.8292    0.4452   -9.7907    0.4371   -9.7970    0.3963   -9.7682    0.4419   -9.7791    0.4569   -0.0000  -48.0000
  8.140   -9.7468    0.4075   -9.7922    0.4430   -9.7534    0.4350   -9.7598    0.3942   -9.7311    0.4398   -9.7420    0.4547   -0.0000  -48.0000
  8.150   -9.7097    0.4056   -9.7553    0.4408   -9.7164    0.4330   -9.7228    0.3922   -9.6943    0.4377   -9.7051    0.4525   -0.0000  -48.0000
  8.160   -9.6728    0.4036   -9.7186    0.4386   -9.6795    0.4309   -9.6859    0.3903   -9.6576    0.4357   -9.6683    0.4504   -0.0000  -48.0000
  8.170   -9.6361    0.4017   -9.6821    0.4365   -9.6427    0.4289   -9.6492    0.3883   -9.6211    0.4337   -9.6318    0.4483   -0.0000  -48.0000
  8.180   -9.5995    0.3999   -9.6457    0.4343   -9.6061    0.4269   -9.6126    0.3864   -9.5847    0.4317   -9.5953    0.4462   -0.0000  -48.0000
  8.190   -9.5631    0.3980   -9.6095    0.4322   -9.5696    0.4250   -9.5762    0.3844   -9.5485    0.4297   -9.5590    0.4441   -0.0000  -48.0000
  8.200   -9.5268    0.3962   -9.5735    0.4302   -9.5333    0.4230   -9.5400    0.3825   -9.5124    0.4278   -9.5229    0.4421   -0.0000  -48.0000
  8.210   -9.4907    0.3944   -9.5376    0.4281   -9.4972    0.4211   -9.5038    0.3807   -9.4765    0.4259   -9.4869    0.4401   -0.0000  -48.0000
  8.220   -9.4547    0.3926   -9.5018    0.4261   -9.4612    0.4193   -9.4679    0.3788   -9.4407    0.4240   -9.4511    0.4381   -0.0000  -48.0000
  8.230   -9.4189    0.3908   -9.4662    0.4241   -9.4253    0.4174   -9.4321    0.3770   -9.4051    0.4221   -9.4154    0.4362   -0.0000  -48.0000
  8.240   -9.3832    0.3891   -9.4308    0.4221   -9.3896    0.4156   -9.3964    0.3752   -9.3696    0.4203   -9.3799    0.4342   -0.0000  -48.0000
  8.250   -9.3476    0.3874   -9.3955    0.4202   -9.3540    0.4138   -9.3608    0.3734   -9.3342    0.4185   -9.3445    0.4323   -0.0000  -48.0000
  8.260   -9.3122    0.3857   -9.3604    0.4183   -9.3185    0.4120   -9.3254    0.3717   -9.2990    0.4167   -9.3092    0.4305   -0.0000  -48.0000
  8.270   -9.2769    0.3841   -9.3254    0.4164   -9.2832    0.4102   -9.2902    0.3699   -9.2639    0.4150   -9.2741    0.4286   -0.0000  -48.0000
  8.280   -9.2417    0.3825   -9.2905    0.4145   -9.2480    0.4085   -9.2550    0.3682   -9.2290    0.4133   -9.2391    0.4268   -0.0000  -48.0000
  8.290   -9.2066    0.3809   -9.2558    0.4127   -9.2129    0.4068   -9.2200    0.3665   -9.1942    0.4116   -9.2042    0.4250   -0.0000  -48.0000
  8.300   -9.1717    0.3793   -9.2212    0.4108   -9.1780    0.4051   -9.1851    0.3649   -9.1595    0.4099   -9.1695    0.4233   -0.0000  -48.0000
  8.310   -9.1369    0.3778   -9.1868    0.4090   -9.1432    0.4035   -9.1504    0.3632   -9.1249    0.4083   -9.1348    0.4216   -0.0000  -48.0000
  8.320   -9.1023    0.3762   -9.1524    0.4073   -9.1085    0.4019   -9.1157    0.3616   -9.0905    0.4067   -9.1003    0.4199   -0.0000  -48.0000
  8.330   -9.0677    0.3747   -9.1183    0.4055   -9.0739    0.4003   -9.0812    0.3600   -9.0561    0.4051   -9.0660    0.4182   -0.0000  -48.0000
  8.340   -9.0333    0.3733   -9.0842    0.4038   -9.0394    0.3987   -9.0468    0.3584   -9.0219    0.4035   -9.0317    0.4165   -0.0000  -48.0000
  8.350   -8.9989    0.3718   -9.0503    0.4021   -9.0051    0.3972   -9.0125    0.3569   -8.9878    0.4020   -8.9976    0.4149   -0.0000  -48.0000
  8.360   -8.9647    0.3704   -9.0165    0.4004   -8.9708    0.3956   -8.9784    0.3553   -8.9539    0.4005   -8.9636    0.4134   -0.0000  -48.0000
  8.370   -8.9306    0.3691   -8.9828    0.3987   -8.9367    0.3942   -8.9443    0.3538   -8.9200    0.3990   -8.9297    0.4118   -0.0000  -48.0000
  8.380   -8.8966    0.3677   -8.9492    0.3971   -8.9026    0.3927   -8.9104    0.3524   -8.8862    0.3976   -8.8959    0.4103   -0.0000  -48.0000
  8.390   -8.8627    0.3664   -8.9158    0.3955   -8.8687    0.3913   -8.8765    0.3509   -8.8526    0.3962   -8.8622    0.4088   -0.0000  -48.0000
  8.400   -8.8289    0.3651   -8.8825    0.3939   -8.8349    0.3899   -8.8427    0.3495   -8.8191    0.3948   -8.8286    0.4073   -0.0000  -48.0000
  8.410   -8.7952    0.3638   -8.8492    0.3924   -8.8011    0.3885   -8.8091    0.3480   -8.7856    0.3935   -8.7951    0.4059   -0.0000  -48.0000
  8.420   -8.7616    0.3626   -8.8161    0.3908   -8.7675    0.3871   -8.7755    0.3467   -8.7523    0.3921   -8.7617    0.4045   -0.0000  -48.0000
  8.430   -8.7281    0.3614   -8.7831    0.3893   -8.7339    0.3858   -8.7421    0.3453   -8.7190    0.3908   -8.7284    0.4031   -0.0000  -48.0000
  8.440   -8.6946    0.3602   -8.7503    0.3878   -8.7005    0.3846   -8.7087    0.3440   -8.6859    0.3896   -8.6952    0.4018   -0.0000  -48.0000
  8.450   -8.6613    0.3590   -8.7175    0.3864   -8.6671    0.3833   -8.6754    0.3426   -8.6528    0.3884   -8.6621    0.4005   -0.0000  -48.0000
  8.460   -8.6280    0.3579   -8.6848    0.3849   -8.6338    0.3821   -8.6422    0.3414   -8.6198    0.3872   -8.6291    0.3992   -0.0000  -48.0000
  8.470   -8.5948    0.3568   -8.6522    0.3835   -8.6006    0.3809   -8.6091    0.3401   -8.5869    0.3860   -8.5961    0.3980   -0.0000  -48.0000
  8.480   -8.5617    0.3558   -8.6197    0.3822   -8.5674    0.3797   -8.5761    0.3388   -8.5541    0.3849   -8.5633    0.3968   -0.0000  -48.0000
  8.490   -8.5287    0.3548   -8.5873    0.3808   -8.5344    0.3786   -8.5431    0.3376   -8.5214    0.3838   -8.5305    0.3956   -0.0000  -48.0000
  8.500   -8.4957    0.3538   -8.5550    0.3795   -8.5013    0.3775   -8.5102    0.3365   -8.4887    0.3827   -8.4978    0.3945   -0.0000  -48.0000
  8.510   -8.4628    0.3529   -8.5228    0.3782   -8.4684    0.3765   -8.4774    0.3353   -8.4561    0.3817   -8.4652    0.3934   -0.0000  -48.0000
  8.520   -8.4300    0.3519   -8.4907    0.3769   -8.4355    0.3754   -8.4446    0.3342   -8.4236    0.3807   -8.4326    0.3923   -0.0000  -48.0000
  8.530   -8.3972    0.3511   -8.4586    0.3757   -8.4027    0.3745   -8.4119    0.3331   -8.3911    0.3798   -8.4001    0.3913   -0.0000  -48.0000
  8.540   -8.3644    0.3502   -8.4267    0.3745   -8.3699    0.3735   -8.3792    0.3320   -8.3587    0.3788   -8.3677    0.3903   -0.0000  -48.0000
  8.550   -8.3318    0.3494   -8.3948    0.3733   -8.3372    0.3726   -8.3466    0.3309   -8.3264    0.3780   -8.3353    0.3894   -0.0000  -48.0000
  8.560   -8.2991    0.3487   -8.3630    0.3721   -8.3045    0.3717   -8.3141    0.3299   -8.2941    0.3772   -8.3030    0.3885   -0.0000  -48.0000
  8.570   -8.2665    0.3480   -8.3313    0.3710   -8.2719    0.3709   -8.2816    0.3290   -8.2619    0.3764   -8.2707    0.3876   -0.0001  -48.0000
  8.580   -8.2340    0.3473   -8.2996    0.3699   -8.2393    0.3701   -8.2491    0.3280   -8.2297    0.3756   -8.2385    0.3868   -0.0001  -48.0000
  8.590   -8.2014    0.3467   -8.2680    0.3689   -8.2067    0.3694   -8.2167    0.3271   -8.1975    0.3749   -8.2063    0.3861   -0.0002  -48.0000
  8.600   -8.1689    0.3461   -8.2365    0.3679   -8.1741    0.3687   -8.1843    0.3262   -8.1654    0.3743   -8.1742    0.3853   -0.0003  -48.0000
  8.610   -8.1365    0.3455   -8.2050    0.3669   -8.1416    0.3680   -8.1519    0.3254   -8.1333    0.3737   -8.1420    0.3847   -0.0004  -48.0000
  8.620   -8.1040    0.3451   -8.1736    0.3659   -8.1091    0.3674   -8.1196    0.3245   -8.1013    0.3731   -8.1100    0.3840   -0.0006  -48.0000
  8.630   -8.0716    0.3446   -8.1422    0.3650   -8.0766    0.3669   -8.0873    0.3238   -8.0693    0.3726   -8.0779    0.3835   -0.0009  -48.0000
  8.640   -8.0391    0.3442   -8.1109    0.3641   -8.0441    0.3664   -8.0549    0.3230   -8.0373    0.3721   -8.0459    0.3830   -0.0013  -48.0000
  8.650   -8.0067    0.3439   -8.0796    0.3632   -8.0116    0.3659   -8.0226    0.3223   -8.0053    0.3717   -8.0139    0.3825   -0.0020  -48.0000
  8.660   -7.9743    0.3436   -8.0484    0.3624   -7.9791    0.3655   -7.9903    0.3217   -7.9733    0.3714   -7.9818    0.3821   -0.0029  -48.0000
  8.670   -7.9418    0.3434   -8.0172    0.3616   -7.9466    0.3652   -7.9580    0.3210   -7.9413    0.3711   -7.9498    0.3817   -0.0043  -48.0000
  8.680   -7.9094    0.3433   -7.9860    0.3609   -7.9141    0.3649   -7.9257    0.3205   -7.9094    0.3709   -7.9178    0.3815   -0.0062  -48.0000
  8.690   -7.8769    0.3432   -7.9549    0.3602   -7.8815    0.3647   -7.8933    0.3199   -7.8774    0.3707   -7.8858    0.3812   -0.0089  -48.0000
  8.700   -7.8444    0.3431   -7.9238    0.3596   -7.8490    0.3645   -7.8609    0.3195   -7.8454    0.3706   -7.8538    0.3811   -0.0128  -48.0000
  8.710   -7.8118    0.3432   -7.8927    0.3589   -7.8163    0.3644   -7.8285    0.3190   -7.8134    0.3706   -7.8218    0.3810   -0.0182  -48.0000
  8.720   -7.7792    0.3433   -7.8616    0.3584   -7.7837    0.3644   -7.7961    0.3186   -7.7814    0.3707   -7.7897    0.3810   -0.0258  -48.0000
  8.730   -7.7466    0.3435   -7.8305    0.3579   -7.7509    0.3645   -7.7636    0.3183   -7.7493    0.3708   -7.7576    0.3811   -0.0363  -48.0000
  8.740   -7.7139    0.3438   -7.7995    0.3574   -7.7182    0.3646   -7.7310    0.3180   -7.7172    0.3710   -7.7255    0.3812   -0.0509  -48.0001
  8.750   -7.6811    0.3441   -7.7684    0.3570   -7.6853    0.3648   -7.6984    0.3178   -7.6850    0.3713   -7.6933    0.3814   -0.0709  -48.0001
  8.760   -7.6482    0.3446   -7.7374    0.3566   -7.6524    0.3651   -7.6658    0.3177   -7.6528    0.3716   -7.6611    0.3817   -0.0983  -48.0001
  8.770   -7.6153    0.3451   -7.7063    0.3563   -7.6193    0.3655   -7.6330    0.3176   -7.6206    0.3721   -7.6288    0.3822   -0.1354  -48.0002
  8.780   -7.5823    0.3458   -7.6753    0.3560   -7.5862    0.3660   -7.6001    0.3176   -7.5882    0.3727   -7.5964    0.3827   -0.1856  -48.0002
  8.790   -7.5491    0.3465   -7.6442    0.3558   -7.5529    0.3666   -7.5672    0.3176   -7.5558    0.3733   -7.5639    0.3833   -0.2531  -48.0003
  8.800   -7.5158    0.3474   -7.6130    0.3557   -7.5196    0.3673   -7.5341    0.3178   -7.5233    0.3741   -7.5314    0.3840   -0.3434  -48.0005
  8.810   -7.4824    0.3484   -7.5819    0.3556   -7.4861    0.3681   -7.5009    0.3180   -7.4907    0.3750   -7.4988    0.3848   -0.4635  -48.0006
  8.820   -7.4489    0.3495   -7.5507    0.3556   -7.4524    0.3690   -7.4675    0.3183   -7.4580    0.3760   -7.4660    0.3858   -0.6223  -48.0009
  8.830   -7.4152    0.3507   -7.5194    0.3556   -7.4186    0.3701   -7.4340    0.3187   -7.4251    0.3772   -7.4332    0.3869   -0.8311  -48.0012
  8.840   -7.3814    0.3521   -7.4881    0.3558   -7.3846    0.3713   -7.4004    0.3191   -7.3921    0.3784   -7.4002    0.3881   -1.1043  -48.0016
  8.850   -7.3473    0.3536   -7.4567    0.3560   -7.3504    0.3726   -7.3665    0.3197   -7.3590    0.3798   -7.3670    0.3895   -1.4596  -48.0021
  8.860   -7.3131    0.3553   -7.4253    0.3563   -7.3160    0.3741   -7.3325    0.3204   -7.3257    0.3814   -7.3337    0.3910   -1.9188  -48.0028
  8.870   -7.2786    0.3572   -7.3938    0.3567   -7.2813    0.3758   -7.2982    0.3212   -7.2923    0.3831   -7.3002    0.3927   -2.5087  -48.0037
  8.880   -7.2439    0.3592   -7.3622    0.3571   -7.2465    0.3776   -7.2637    0.3222   -7.2587    0.3851   -7.2666    0.3945   -3.2619  -48.0049
  8.890   -7.2089    0.3615   -7.3304    0.3577   -7.2113    0.3797   -7.2290    0.3232   -7.2248    0.3872   -7.2327    0.3966   -4.2171  -48.0065
  8.900   -7.1737    0.3639   -7.2986    0.3583   -7.1759    0.3819   -7.1940    0.3245   -7.1908    0.3895   -7.1986    0.3988   -5.4203  -48.0085
  8.910   -7.1382    0.3666   -7.2667    0.3591   -7.1401    0.3843   -7.1587    0.3258   -7.1565    0.3920   -7.1643    0.4013   -6.9253  -48.0110
  8.920   -7.1023    0.3695   -7.2346    0.3600   -7.1041    0.3870   -7.1230    0.3273   -7.1219    0.3947   -7.1298    0.4040   -8.7940  -48.0142
  8.930   -7.0662    0.3727   -7.2024    0.3610   -7.0676    0.3899   -7.0871    0.3291   -7.0871    0.3977   -7.0949    0.4069  -11.0969  -48.0183
  8.940   -7.0296    0.3762   -7.1700    0.3621   -7.0308    0.3931   -7.0507    0.3310   -7.0520    0.4009   -7.0598    0.4101  -13.9128  -48.0234
  8.950   -6.9927    0.3800   -7.1374    0.3633   -6.9935    0.3966   -7.0140    0.3331   -7.0165    0.4045   -7.0243    0.4136  -17.3283  -48.0298
  8.960   -6.9553    0.3841   -7.1047    0.3647   -6.9559    0.4005   -6.9768    0.3354   -6.9808    0.4083   -6.9885    0.4174  -21.4371  -48.0377
  8.970   -6.9175    0.3886   -7.0718    0.3663   -6.9177    0.4046   -6.9391    0.3380   -6.9446    0.4125   -6.9524    0.4216  -26.3377  -48.0474
  8.980   -6.8791    0.3934   -7.0386    0.3680   -6.8790    0.4092   -6.9010    0.3408   -6.9081    0.4171   -6.9158    0.4261  -32.1318  -48.0592
  8.990   -6.8403    0.3987   -7.0053    0.3698   -6.8397    0.4141   -6.8622    0.3440   -6.8712    0.4220   -6.8789    0.4310  -38.9214  -48.0735
  9.000   -6.8009    0.4045   -6.9716    0.3719   -6.7998    0.4195   -6.8229    0.3474   -6.8338    0.4274   -6.8415    0.4363  -46.8049  -48.0907
  9.010   -6.7609    0.4108   -6.9377    0.3742   -6.7593    0.4255   -6.7830    0.3512   -6.7959    0.4332   -6.8036    0.4421  -55.8734  -48.1112
  9.020   -6.7202    0.4176   -6.9035    0.3766   -6.7181    0.4319   -6.7424    0.3554   -6.7575    0.4396   -6.7651    0.4484  -66.2068  -48.1355
  9.030   -6.6788    0.4251   -6.8690    0.3793   -6.6761    0.4390   -6.7010    0.3601   -6.7185    0.4465   -6.7262    0.4553  -77.8684  -48.1642
  9.040   -6.6367    0.4333   -6.8342    0.3823   -6.6333    0.4467   -6.6588    0.3652   -6.6789    0.4540   -6.6866    0.4628  -90.9016  -48.1976
  9.050   -6.5938    0.4422   -6.7990    0.3855   -6.5896    0.4551   -6.6158    0.3708   -6.6387    0.4622   -6.6464    0.4709 -105.3252  -48.2363
  9.060   -6.5499    0.4519   -6.7634    0.3889   -6.5449    0.4644   -6.5717    0.3770   -6.5979    0.4712   -6.6055    0.4798 -121.1310  -48.2808
  9.070   -6.5052    0.4626   -6.7274    0.3927   -6.4992    0.4745   -6.5267    0.3838   -6.5563    0.4810   -6.5639    0.4896 -138.2816  -48.3316
  9.080   -6.4595    0.4743   -6.6910    0.3969   -6.4524    0.4857   -6.4805    0.3914   -6.5139    0.4917   -6.5215    0.5002 -156.7102  -48.3892
  9.090   -6.4126    0.4871   -6.6540    0.4013   -6.4044    0.4979   -6.4331    0.3997   -6.4707    0.5033   -6.4783    0.5119 -176.3219  -48.4540
  9.100   -6.3647    0.5012   -6.6166    0.4062   -6.3551    0.5115   -6.3844    0.4090   -6.4266    0.5162   -6.4342    0.5246 -196.9977  -48.5264
  9.110   -6.3154    0.5168   -6.5786    0.4115   -6.3044    0.5264   -6.3343    0.4193   -6.3815    0.5302   -6.3892    0.5387 -218.5997  -48.6067
  9.120   -6.2649    0.5340   -6.5400    0.4173   -6.2522    0.5430   -6.2825    0.4308   -6.3355    0.5457   -6.3431    0.5541 -240.9794  -48.6953
  9.130   -6.2130    0.5529   -6.5008    0.4236   -6.1983    0.5613   -6.2291    0.4436   -6.2884    0.5627   -6.2960    0.5711 -263.9875  -48.7923
  9.140   -6.1595    0.5740   -6.4609    0.4304   -6.1426    0.5818   -6.1737    0.4580   -6.2401    0.5816   -6.2478    0.5899 -287.4859  -48.8979
  9.150   -6.1044    0.5974   -6.4202    0.4379   -6.0850    0.6046   -6.1163    0.4740   -6.1907    0.6024   -6.1984    0.6106 -311.3609  -49.0124
  9.160   -6.0476    0.6235   -6.3787    0.4460   -6.0253    0.6300   -6.0567    0.4921   -6.1401    0.6254   -6.1478    0.6336 -335.5374  -49.1357
  9.170   -5.9891    0.6526   -6.3364    0.4548   -5.9634    0.6586   -5.9946    0.5125   -6.0882    0.6510   -6.0959    0.6592 -359.9938  -49.2680
  9.180   -5.9286    0.6852   -6.2932    0.4645   -5.8991    0.6908   -5.9298    0.5356   -6.0349    0.6796   -6.0427    0.6877 -384.7760  -49.4094
  9.190   -5.8662    0.7218   -6.2490    0.4751   -5.8323    0.7272   -5.8621    0.5619   -5.9804    0.7114   -5.9881    0.7195 -410.0104  -49.5600
  9.200   -5.8018    0.7630   -6.2037    0.4867   -5.7627    0.7684   -5.7912    0.5919   -5.9245    0.7471   -5.9323    0.7551 -435.9149  -49.7202
  9.210   -5.7355    0.8095   -6.1573    0.4994   -5.6903    0.8154   -5.7168    0.6263   -5.8674    0.7871   -5.8752    0.7951 -462.8049  -49.8903
  9.220   -5.6672    0.8622   -6.1096    0.5133   -5.6151    0.8690   -5.6387    0.6659   -5.8091    0.8321   -5.8170    0.8400 -491.0957  -50.0708
  9.230   -5.5972    0.9222   -6.0605    0.5286   -5.5369    0.9306   -5.5566    0.7118   -5.7500    0.8829   -5.7579    0.8908 -521.2965  -50.2624
  9.240   -5.5257    0.9905   -6.0100    0.5455   -5.4558    1.0016   -5.4702    0.7652   -5.6902    0.9403   -5.6981    0.9481 -553.9959  -50.4660
  9.250   -5.4532    1.0685   -5.9579    0.5642   -5.3723    1.0839   -5.3796    0.8278   -5.6303    1.0054   -5.6383    1.0131 -589.8358  -50.6827
  9.260   -5.3805    1.1579   -5.9040    0.5849   -5.2869    1.1796   -5.2845    0.9013   -5.5710    1.0792   -5.5791    1.0869 -629.4730  -50.9140
  9.270   -5.3087    1.2605   -5.8483    0.6078   -5.2006    1.2914   -5.1855    0.9884   -5.5135    1.1631   -5.5215    1.1707 -673.5263  -51.1616
  9.280   -5.2395    1.3784   -5.7905    0.6334   -5.1152    1.4225   -5.0831    1.0919   -5.4590    1.2584   -5.4672    1.2659 -722.5115  -51.4271
  9.290   -5.1753    1.5138   -5.7306    0.6619   -5.0334    1.5765   -4.9788    1.2155   -5.4098    1.3665   -5.4180    1.3739 -776.7650  -51.7125
  9.300   -5.1196    1.6690   -5.6681    0.6939   -4.9594    1.7576   -4.8753    1.3635   -5.3685    1.4887   -5.3768    1.4960 -836.3624  -52.0199
  9.310   -5.0770    1.8461   -5.6030    0.7298   -4.8998    1.9700   -4.7767    1.5410   -5.3390    1.6258   -5.3474    1.6331 -901.0396  -52.3510
  9.320   -5.0540    2.0465   -5.5350    0.7706   -4.8640    2.2175   -4.6899    1.7530   -5.3261    1.7781   -5.3345    1.7853 -970.1268  -52.7075
  9.330   -5.0588    2.2703   -5.4638    0.8170   -4.8652    2.5019   -4.6252    2.0042   -5.3357    1.9443   -5.3442    1.9513 *********  -53.0906
  9.340   -5.1016    2.5147   -5.3893    0.8702   -4.9213    2.8207   -4.5975    2.2966   -5.3745    2.1208   -5.3831    2.1277 *********  -53.5010
  9.350   -5.1939    2.7729   -5.3113    0.9319   -5.0534    3.1635   -4.6263    2.6269   -5.4494    2.3010   -5.4581    2.3078 *********  -53.9385
  9.360   -5.3467    3.0323   -5.2300    1.0041   -5.2827    3.5073   -4.7336    2.9817   -5.5655    2.4741   -5.5744    2.4807 *********  -54.4021
  9.370   -5.5671    3.2731   -5.1463    1.0891   -5.6221    3.8145   -4.9386    3.3341   -5.7237    2.6256   -5.7328    2.6320 *********  -54.8901
  9.380   -5.8535    3.4701   -5.0617    1.1896   -6.0647    4.0358   -5.2473    3.6438   -5.9180    2.7394   -5.9273    2.7455 *********  -55.3997
  9.390   -6.1916    3.5980   -4.9788    1.3082   -6.5752    4.1247   -5.6425    3.8661   -6.1338    2.8023   -6.1434    2.8080 *********  -55.9271
  9.400   -6.5545    3.6392   -4.9010    1.4471   -7.0931    4.0573   -6.0827    3.9689   -6.3506    2.8091   -6.3603    2.8143 *********  -56.4680
  9.410   -6.9093    3.5911   -4.8323    1.6077   -7.5528    3.8461   -6.5140    3.9472   -6.5474    2.7656   -6.5571    2.7701 *********  -57.0175
  9.420   -7.2268    3.4668   -4.7774    1.7914   -7.9072    3.5347   -6.8908    3.8250   -6.7094    2.6862   -6.7189    2.6902 *********  -57.5702
  9.430   -7.4892    3.2890   -4.7415    1.9989   -8.1402    3.1779   -7.1899    3.6413   -6.8307    2.5894   -6.8399    2.5928 *********  -58.1210
  9.440   -7.6912    3.0822   -4.7317    2.2308   -8.2620    2.8226   -7.4107    3.4344   -6.9141    2.4921   -6.9228    2.4949 *********  -58.6647
  9.450   -7.8370    2.8666   -4.7569    2.4858   -8.2966    2.4998   -7.5674    3.2318   -6.9679    2.4068   -6.9761    2.4092 *********  -59.1965
  9.460   -7.9361    2.6562   -4.8279    2.7601   -8.2711    2.2243   -7.6795    3.0479   -7.0037    2.3408   -7.0113    2.3430 *********  -59.7124
  9.470   -7.9995    2.4587   -4.9569    3.0445   -8.2095    2.0000   -7.7659    2.8867   -7.0337    2.2962   -7.0408    2.2982 *********  -60.2088
  9.480   -8.0373    2.2769   -5.1544    3.3236   -8.1311    1.8236   -7.8415    2.7441   -7.0694    2.2699   -7.0759    2.2718 *********  -60.6829
  9.490   -8.0577    2.1100   -5.4260    3.5753   -8.0502    1.6880   -7.9155    2.6120   -7.1197    2.2544   -7.1257    2.2563 *********  -61.1328
  9.500   -8.0660    1.9554   -5.7677    3.7723   -7.9764    1.5838   -7.9910    2.4803   -7.1891    2.2391   -7.1945    2.2411 *********  -61.5570
  9.510   -8.0648    1.8098   -6.1625    3.8884   -7.9150    1.5011   -8.0651    2.3404   -7.2766    2.2124   -7.2814    2.2146 *********  -61.9549
  9.520   -8.0545    1.6710   -6.5811    3.9059   -7.8668    1.4301   -8.1309    2.1875   -7.3753    2.1646   -7.3797    2.1670 *********  -62.3261
  9.530   -8.0346    1.5381   -6.9880    3.8216   -7.8294    1.3633   -8.1803    2.0221   -7.4746    2.0909   -7.4786    2.0937 -938.1088  -62.6709
  9.540   -8.0046    1.4117   -7.3507    3.6486   -7.7986    1.2962   -8.2069    1.8492   -7.5635    1.9924   -7.5672    1.9955 -867.4131  -62.9896
  9.550   -7.9647    1.2933   -7.6472    3.4113   -7.7697    1.2270   -8.2083    1.6763   -7.6335    1.8751   -7.6370    1.8785 -798.7612  -63.2832
  9.560   -7.9162    1.1844   -7.8688    3.1376   -7.7393    1.1565   -8.1857    1.5105   -7.6803    1.7470   -7.6838    1.7508 -732.6888  -63.5524
  9.570   -7.8611    1.0857   -8.0183    2.8526   -7.7054    1.0862   -8.1431    1.3574   -7.7038    1.6162   -7.7072    1.6203 -669.6031  -63.7985
  9.580   -7.8014    0.9975   -8.1055    2.5744   -7.6673    1.0179   -8.0856    1.2196   -7.7064    1.4889   -7.7098    1.4932 -609.8108  -64.0226
  9.590   -7.7391    0.9194   -8.1428    2.3147   -7.6252    0.9530   -8.0181    1.0983   -7.6918    1.3692   -7.6952    1.3738 -553.5370  -64.2260
  9.600   -7.6757    0.8507   -8.1424    2.0792   -7.5800    0.8925   -7.9445    0.9927   -7.6640    1.2593   -7.6675    1.2641 -500.9364  -64.4101
  9.610   -7.6123    0.7902   -8.1149    1.8696   -7.5325    0.8369   -7.8681    0.9015   -7.6266    1.1600   -7.6301    1.1649 -452.0994  -64.5763
  9.620   -7.5499    0.7371   -8.0687    1.6853   -7.4835    0.7860   -7.7912    0.8230   -7.5826    1.0711   -7.5862    1.0761 -407.0547  -64.7258
  9.630   -7.4888    0.6903   -8.0102    1.5243   -7.4338    0.7399   -7.7152    0.7555   -7.5343    0.9920   -7.5380    0.9972 -365.7716  -64.8603
  9.640   -7.4294    0.6490   -7.9442    1.3842   -7.3840    0.6982   -7.6411    0.6974   -7.4835    0.9219   -7.4872    0.9271 -328.1634  -64.9809
  9.650   -7.3719    0.6124   -7.8739    1.2623   -7.3345    0.6606   -7.5694    0.6471   -7.4314    0.8597   -7.4352    0.8650 -294.0928  -65.0889
  9.660   -7.3164    0.5799   -7.8018    1.1563   -7.2856    0.6266   -7.5004    0.6035   -7.3790    0.8045   -7.3828    0.8099 -263.3787  -65.1857
  9.670   -7.2628    0.5508   -7.7295    1.0638   -7.2375    0.5959   -7.4342    0.5655   -7.3268    0.7555   -7.3306    0.7609 -235.8063  -65.2724
  9.680   -7.2111    0.5248   -7.6579    0.9830   -7.1905    0.5681   -7.3709    0.5323   -7.2753    0.7118   -7.2792    0.7172 -211.1364  -65.3500
  9.690   -7.1612    0.5013   -7.5879    0.9122   -7.1445    0.5429   -7.3102    0.5030   -7.2247    0.6728   -7.2287    0.6782 -189.1166  -65.4195
  9.700   -7.1131    0.4801   -7.5197    0.8498   -7.0996    0.5200   -7.2522    0.4772   -7.1753    0.6378   -7.1793    0.6433 -169.4902  -65.4818
  9.710   -7.0666    0.4609   -7.4537    0.7948   -7.0559    0.4991   -7.1967    0.4542   -7.1272    0.6064   -7.1312    0.6119 -152.0057  -65.5376
  9.720   -7.0218    0.4435   -7.3900    0.7460   -7.0133    0.4801   -7.1435    0.4338   -7.0803    0.5781   -7.0843    0.5836 -136.4230  -65.5878
  9.730   -6.9783    0.4275   -7.3286    0.7027   -6.9719    0.4627   -7.0925    0.4154   -7.0348    0.5524   -7.0388    0.5580 -122.5185  -65.6328
  9.740   -6.9363    0.4129   -7.2694    0.6640   -6.9315    0.4468   -7.0434    0.3989   -6.9905    0.5292   -6.9946    0.5347 -110.0891  -65.6732
  9.750   -6.8956    0.3995   -7.2125    0.6293   -6.8922    0.4321   -6.9963    0.3840   -6.9475    0.5081   -6.9516    0.5136  -98.9530  -65.7096
  9.760   -6.8561    0.3872   -7.1577    0.5982   -6.8539    0.4186   -6.9509    0.3705   -6.9057    0.4888   -6.9098    0.4943  -88.9507  -65.7423
  9.770   -6.8177    0.3758   -7.1050    0.5701   -6.8166    0.4061   -6.9071    0.3582   -6.8651    0.4711   -6.8693    0.4767  -79.9439  -65.7717
  9.780   -6.7804    0.3652   -7.0542    0.5447   -6.7802    0.3946   -6.8649    0.3470   -6.8256    0.4549   -6.8298    0.4605  -71.8138  -65.7981
  9.790   -6.7442    0.3554   -7.0052    0.5216   -6.7446    0.3838   -6.8240    0.3367   -6.7872    0.4400   -6.7914    0.4455  -64.4596  -65.8218
  9.800   -6.7088    0.3463   -6.9579    0.5006   -6.7100    0.3739   -6.7844    0.3272   -6.7499    0.4263   -6.7540    0.4318  -57.7959  -65.8430
  9.810   -6.6744    0.3378   -6.9123    0.4815   -6.6761    0.3646   -6.7461    0.3185   -6.7135    0.4136   -6.7176    0.4191  -51.7502  -65.8620
  9.820   -6.6408    0.3299   -6.8682    0.4640   -6.6430    0.3559   -6.7089    0.3105   -6.6780    0.4018   -6.6821    0.4073  -46.2615  -65.8790
  9.830   -6.6080    0.3224   -6.8255    0.4479   -6.6106    0.3478   -6.6727    0.3030   -6.6434    0.3909   -6.6475    0.3964  -41.2775  -65.8942
  9.840   -6.5760    0.3155   -6.7842    0.4331   -6.5789    0.3402   -6.6376    0.2961   -6.6096    0.3807   -6.6138    0.3862  -36.7534  -65.9077
  9.850   -6.5446    0.3089   -6.7441    0.4195   -6.5479    0.3331   -6.6033    0.2896   -6.5766    0.3712   -6.5808    0.3767  -32.6500  -65.9197
  9.860   -6.5140    0.3027   -6.7052    0.4069   -6.5175    0.3264   -6.5700    0.2836   -6.5443    0.3624   -6.5485    0.3678  -28.9331  -65.9303
  9.870   -6.4839    0.2969   -6.6675    0.3952   -6.4877    0.3201   -6.5374    0.2780   -6.5128    0.3541   -6.5170    0.3595  -25.5718  -65.9397
  9.880   -6.4545    0.2914   -6.6308    0.3844   -6.4585    0.3142   -6.5057    0.2727   -6.4819    0.3463   -6.4861    0.3517  -22.5382  -65.9480
  9.890   -6.4256    0.2862   -6.5950    0.3743   -6.4298    0.3085   -6.4746    0.2677   -6.4517    0.3389   -6.4559    0.3443  -19.8069  -65.9553
  9.900   -6.3973    0.2813   -6.5602    0.3649   -6.4017    0.3032   -6.4442    0.2630   -6.4221    0.3321   -6.4262    0.3374  -17.3541  -65.9617
  9.910   -6.3695    0.2767   -6.5263    0.3561   -6.3740    0.2982   -6.4145    0.2586   -6.3930    0.3256   -6.3972    0.3309  -15.1576  -65.9672
  9.920   -6.3422    0.2722   -6.4932    0.3479   -6.3468    0.2934   -6.3854    0.2545   -6.3645    0.3194   -6.3687    0.3248  -13.1967  -65.9721
  9.930   -6.3153    0.2680   -6.4609    0.3402   -6.3200    0.2888   -6.3569    0.2505   -6.3365    0.3136   -6.3407    0.3190  -11.4517  -65.9763
  9.940   -6.2889    0.2640   -6.4293    0.3330   -6.2937    0.2845   -6.3289    0.2468   -6.3091    0.3081   -6.3132    0.3135   -9.9041  -65.9799
  9.950   -6.2629    0.2602   -6.3984    0.3262   -6.2678    0.2804   -6.3014    0.2432   -6.2821    0.3029   -6.2862    0.3082   -8.5363  -65.9831
  9.960   -6.2373    0.2565   -6.3682    0.3198   -6.2423    0.2765   -6.2744    0.2399   -6.2555    0.2980   -6.2597    0.3033   -7.3318  -65.9858
  9.970   -6.2121    0.2530   -6.3386    0.3137   -6.2172    0.2727   -6.2479    0.2366   -6.2294    0.2933   -6.2336    0.2986   -6.2750  -65.9881
  9.980   -6.1873    0.2497   -6.3096    0.3080   -6.1924    0.2691   -6.2218    0.2336   -6.2037    0.2888   -6.2079    0.2941   -5.3513  -65.9899
  9.990   -6.1629    0.2465   -6.2812    0.3026   -6.1680    0.2657   -6.1962    0.2307   -6.1784    0.2845   -6.1826    0.2898   -4.5471  -65.9919
 10.000   -6.1387    0.2434   -6.2533    0.2975   -6.1439    0.2624   -6.1710    0.2279   -6.1535    0.2805   -6.1577    0.2857   -3.8497  -65.9924
