# Macroscopic dielectric function obtained with the BS equation.
#  RPA L0 with KS energies and KS wavefunctions     LOCAL FIELD EFFECTS INCLUDED
# RESONANT-ONLY calculation
# Coulomb term constructed with full W(G1,G2)
# Scissor operator energy =  0.8000 [eV]
# nstates included in the diagonalization = 96
# npweps  = 113
# npwwfn  = 283
# nbands  = 8
# loband  = 2
# nkibz   = 3
# nkbz    = 8
# Lorentzian broadening =  0.0000 [eV]
# List of q-points for the optical limit:
# q =  0.938821, 0.000000, 0.000000, [Reduced coords] 
# q =  0.000000, 0.938821, 0.000000, [Reduced coords] 
# q =  0.000000, 0.000000, 0.938821, [Reduced coords] 
# q =  0.000000, 0.813043, 0.813043, [Reduced coords] 
# q =  0.813043, 0.000000, 0.813043, [Reduced coords] 
# q =  0.813043, 0.813043, 0.000000, [Reduced coords] 
# omega [eV]    RE(eps(q=1)) IM(eps(q=1) RE(eps(q=2) ) ... DOS   IDOS
  0.000   54.7512    0.1284   54.7401    0.1549   54.7463    0.1531   54.7413    0.1168   54.7867    0.1577   54.7844    0.1607    0.0000    0.0000
  0.010   54.7517    0.1308   54.7406    0.1575   54.7468    0.1556   54.7419    0.1193   54.7873    0.1603   54.7849    0.1634    0.0000    0.0000
  0.020   54.7533    0.1332   54.7422    0.1600   54.7484    0.1582   54.7435    0.1218   54.7889    0.1629   54.7865    0.1660    0.0000    0.0000
  0.030   54.7560    0.1357   54.7448    0.1625   54.7511    0.1607   54.7461    0.1243   54.7915    0.1656   54.7892    0.1686    0.0000    0.0000
  0.040   54.7597    0.1381   54.7486    0.1650   54.7549    0.1632   54.7499    0.1267   54.7953    0.1682   54.7929    0.1713    0.0000    0.0000
  0.050   54.7645    0.1406   54.7534    0.1676   54.7597    0.1658   54.7547    0.1292   54.8001    0.1709   54.7977    0.1739    0.0000    0.0000
  0.060   54.7704    0.1431   54.7592    0.1701   54.7656    0.1683   54.7606    0.1317   54.8060    0.1736   54.8036    0.1766    0.0000    0.0000
  0.070   54.7774    0.1455   54.7662    0.1727   54.7725    0.1709   54.7675    0.1343   54.8129    0.1763   54.8106    0.1793    0.0000    0.0000
  0.080   54.7854    0.1480   54.7742    0.1752   54.7805    0.1734   54.7755    0.1368   54.8209    0.1789   54.8186    0.1820    0.0000    0.0000
  0.090   54.7945    0.1505   54.7832    0.1778   54.7896    0.1760   54.7846    0.1393   54.8300    0.1817   54.8277    0.1847    0.0000    0.0000
  0.100   54.8047    0.1530   54.7934    0.1804   54.7998    0.1786   54.7948    0.1418   54.8402    0.1844   54.8379    0.1874    0.0000    0.0000
  0.110   54.8159    0.1556   54.8046    0.1830   54.8110    0.1812   54.8060    0.1444   54.8515    0.1871   54.8491    0.1901    0.0000    0.0000
  0.120   54.8282    0.1581   54.8169    0.1856   54.8234    0.1839   54.8183    0.1469   54.8638    0.1898   54.8615    0.1928    0.0000    0.0000
  0.130   54.8416    0.1606   54.8303    0.1883   54.8367    0.1865   54.8317    0.1495   54.8772    0.1926   54.8749    0.1956    0.0000    0.0000
  0.140   54.8561    0.1632   54.8447    0.1909   54.8512    0.1891   54.8462    0.1521   54.8917    0.1954   54.8894    0.1983    0.0000    0.0000
  0.150   54.8716    0.1657   54.8602    0.1936   54.8668    0.1918   54.8617    0.1547   54.9072    0.1981   54.9049    0.2011    0.0000    0.0000
  0.160   54.8883    0.1683   54.8769    0.1962   54.8834    0.1945   54.8784    0.1573   54.9239    0.2009   54.9216    0.2039    0.0000    0.0000
  0.170   54.9060    0.1709   54.8945    0.1989   54.9011    0.1971   54.8961    0.1599   54.9416    0.2037   54.9393    0.2067    0.0000    0.0000
  0.180   54.9248    0.1735   54.9133    0.2016   54.9199    0.1998   54.9149    0.1625   54.9604    0.2065   54.9582    0.2095    0.0000    0.0000
  0.190   54.9447    0.1761   54.9332    0.2043   54.9398    0.2026   54.9348    0.1652   54.9804    0.2094   54.9781    0.2124    0.0000    0.0000
  0.200   54.9657    0.1787   54.9542    0.2071   54.9608    0.2053   54.9557    0.1678   55.0014    0.2122   54.9991    0.2152    0.0000    0.0000
  0.210   54.9877    0.1813   54.9762    0.2098   54.9829    0.2080   54.9778    0.1705   55.0235    0.2151   55.0212    0.2181    0.0000    0.0000
  0.220   55.0109    0.1840   54.9993    0.2125   55.0060    0.2108   55.0010    0.1732   55.0467    0.2180   55.0444    0.2209    0.0000    0.0000
  0.230   55.0352    0.1867   55.0236    0.2153   55.0303    0.2136   55.0253    0.1758   55.0710    0.2209   55.0687    0.2238    0.0000    0.0000
  0.240   55.0606    0.1893   55.0489    0.2181   55.0557    0.2163   55.0506    0.1785   55.0964    0.2238   55.0941    0.2267    0.0000    0.0000
  0.250   55.0870    0.1920   55.0754    0.2209   55.0822    0.2191   55.0771    0.1813   55.1229    0.2267   55.1206    0.2297    0.0000    0.0000
  0.260   55.1146    0.1947   55.1030    0.2237   55.1097    0.2220   55.1047    0.1840   55.1505    0.2297   55.1483    0.2326    0.0000    0.0000
  0.270   55.1433    0.1975   55.1316    0.2266   55.1384    0.2248   55.1334    0.1867   55.1793    0.2326   55.1770    0.2356    0.0000    0.0000
  0.280   55.1731    0.2002   55.1614    0.2294   55.1683    0.2277   55.1632    0.1895   55.2091    0.2356   55.2069    0.2386    0.0000    0.0000
  0.290   55.2041    0.2030   55.1923    0.2323   55.1992    0.2305   55.1941    0.1923   55.2401    0.2386   55.2379    0.2416    0.0000    0.0000
  0.300   55.2361    0.2057   55.2244    0.2352   55.2313    0.2334   55.2262    0.1951   55.2722    0.2416   55.2700    0.2446    0.0000    0.0000
  0.310   55.2693    0.2085   55.2575    0.2381   55.2644    0.2363   55.2594    0.1979   55.3055    0.2447   55.3032    0.2476    0.0000    0.0000
  0.320   55.3037    0.2113   55.2918    0.2410   55.2988    0.2393   55.2937    0.2007   55.3398    0.2477   55.3376    0.2507    0.0000    0.0000
  0.330   55.3391    0.2141   55.3272    0.2439   55.3342    0.2422   55.3291    0.2036   55.3754    0.2508   55.3731    0.2537    0.0000    0.0000
  0.340   55.3757    0.2170   55.3638    0.2469   55.3708    0.2452   55.3657    0.2064   55.4120    0.2539   55.4098    0.2568    0.0000    0.0000
  0.350   55.4135    0.2198   55.4015    0.2499   55.4086    0.2482   55.4035    0.2093   55.4498    0.2570   55.4476    0.2600    0.0000    0.0000
  0.360   55.4524    0.2227   55.4404    0.2529   55.4474    0.2512   55.4424    0.2122   55.4888    0.2602   55.4866    0.2631    0.0000    0.0000
  0.370   55.4924    0.2256   55.4804    0.2559   55.4875    0.2542   55.4824    0.2151   55.5289    0.2634   55.5267    0.2663    0.0000    0.0000
  0.380   55.5336    0.2285   55.5216    0.2590   55.5287    0.2572   55.5236    0.2181   55.5702    0.2665   55.5680    0.2695    0.0000    0.0000
  0.390   55.5760    0.2315   55.5639    0.2620   55.5711    0.2603   55.5660    0.2210   55.6126    0.2698   55.6104    0.2727    0.0000    0.0000
  0.400   55.6196    0.2344   55.6075    0.2651   55.6146    0.2634   55.6095    0.2240   55.6562    0.2730   55.6540    0.2759    0.0000    0.0000
  0.410   55.6643    0.2374   55.6522    0.2683   55.6593    0.2665   55.6543    0.2270   55.7010    0.2762   55.6988    0.2791    0.0000    0.0000
  0.420   55.7102    0.2404   55.6980    0.2714   55.7052    0.2697   55.7002    0.2300   55.7470    0.2795   55.7448    0.2824    0.0000    0.0000
  0.430   55.7573    0.2434   55.7451    0.2746   55.7523    0.2728   55.7473    0.2331   55.7942    0.2828   55.7920    0.2857    0.0000    0.0000
  0.440   55.8056    0.2465   55.7934    0.2777   55.8006    0.2760   55.7956    0.2361   55.8426    0.2862   55.8404    0.2891    0.0000    0.0000
  0.450   55.8551    0.2496   55.8428    0.2809   55.8501    0.2792   55.8450    0.2392   55.8922    0.2895   55.8900    0.2924    0.0000    0.0000
  0.460   55.9058    0.2526   55.8935    0.2842   55.9008    0.2825   55.8957    0.2423   55.9430    0.2929   55.9408    0.2958    0.0000    0.0000
  0.470   55.9578    0.2558   55.9454    0.2874   55.9527    0.2857   55.9477    0.2455   55.9950    0.2963   55.9928    0.2992    0.0000    0.0000
  0.480   56.0109    0.2589   55.9985    0.2907   56.0059    0.2890   56.0008    0.2486   56.0482    0.2997   56.0460    0.3026    0.0000    0.0000
  0.490   56.0653    0.2621   56.0528    0.2940   56.0602    0.2923   56.0552    0.2518   56.1027    0.3032   56.1005    0.3061    0.0000    0.0000
  0.500   56.1209    0.2653   56.1084    0.2974   56.1158    0.2957   56.1108    0.2550   56.1584    0.3067   56.1562    0.3096    0.0000    0.0000
  0.510   56.1778    0.2685   56.1652    0.3008   56.1727    0.2990   56.1676    0.2583   56.2153    0.3102   56.2131    0.3131    0.0000    0.0000
  0.520   56.2359    0.2717   56.2233    0.3042   56.2308    0.3024   56.2257    0.2615   56.2735    0.3138   56.2713    0.3166    0.0000    0.0000
  0.530   56.2952    0.2750   56.2826    0.3076   56.2901    0.3059   56.2851    0.2648   56.3330    0.3173   56.3308    0.3202    0.0000    0.0000
  0.540   56.3559    0.2783   56.3432    0.3110   56.3507    0.3093   56.3457    0.2681   56.3937    0.3210   56.3915    0.3238    0.0000    0.0000
  0.550   56.4178    0.2816   56.4050    0.3145   56.4126    0.3128   56.4076    0.2715   56.4557    0.3246   56.4536    0.3275    0.0000    0.0000
  0.560   56.4810    0.2849   56.4682    0.3180   56.4758    0.3163   56.4708    0.2748   56.5190    0.3283   56.5169    0.3311    0.0000    0.0000
  0.570   56.5454    0.2883   56.5326    0.3216   56.5403    0.3199   56.5352    0.2782   56.5836    0.3320   56.5814    0.3348    0.0000    0.0000
  0.580   56.6112    0.2917   56.5983    0.3252   56.6061    0.3234   56.6010    0.2816   56.6495    0.3357   56.6473    0.3386   -0.0000   -0.0000
  0.590   56.6783    0.2952   56.6654    0.3288   56.6731    0.3271   56.6681    0.2851   56.7167    0.3395   56.7146    0.3423   -0.0000   -0.0000
  0.600   56.7468    0.2986   56.7338    0.3324   56.7416    0.3307   56.7365    0.2886   56.7853    0.3433   56.7831    0.3461   -0.0000   -0.0000
  0.610   56.8165    0.3021   56.8035    0.3361   56.8113    0.3344   56.8062    0.2921   56.8551    0.3471   56.8530    0.3500   -0.0000   -0.0000
  0.620   56.8876    0.3057   56.8745    0.3398   56.8824    0.3381   56.8773    0.2956   56.9263    0.3510   56.9242    0.3539   -0.0000   -0.0000
  0.630   56.9600    0.3092   56.9469    0.3435   56.9548    0.3418   56.9497    0.2992   56.9989    0.3549   56.9967    0.3578   -0.0000   -0.0000
  0.640   57.0338    0.3128   57.0206    0.3473   57.0285    0.3456   57.0235    0.3028   57.0728    0.3589   57.0707    0.3617   -0.0000   -0.0000
  0.650   57.1090    0.3164   57.0957    0.3511   57.1037    0.3494   57.0987    0.3065   57.1481    0.3628   57.1459    0.3657   -0.0000   -0.0000
  0.660   57.1855    0.3201   57.1722    0.3550   57.1802    0.3533   57.1752    0.3102   57.2248    0.3669   57.2226    0.3697   -0.0000   -0.0000
  0.670   57.2635    0.3238   57.2501    0.3589   57.2581    0.3572   57.2531    0.3139   57.3029    0.3709   57.3007    0.3738   -0.0000   -0.0000
  0.680   57.3428    0.3275   57.3294    0.3628   57.3374    0.3611   57.3324    0.3176   57.3823    0.3750   57.3802    0.3779   -0.0000   -0.0000
  0.690   57.4235    0.3313   57.4101    0.3667   57.4182    0.3650   57.4132    0.3214   57.4632    0.3792   57.4611    0.3820   -0.0000   -0.0000
  0.700   57.5057    0.3351   57.4922    0.3708   57.5003    0.3691   57.4953    0.3252   57.5455    0.3834   57.5434    0.3862   -0.0000   -0.0000
  0.710   57.5893    0.3390   57.5757    0.3748   57.5839    0.3731   57.5789    0.3291   57.6293    0.3876   57.6271    0.3904   -0.0000   -0.0000
  0.720   57.6744    0.3428   57.6607    0.3789   57.6690    0.3772   57.6640    0.3330   57.7145    0.3919   57.7124    0.3947   -0.0000   -0.0000
  0.730   57.7609    0.3468   57.7472    0.3830   57.7555    0.3813   57.7505    0.3369   57.8012    0.3962   57.7990    0.3990   -0.0000   -0.0000
  0.740   57.8489    0.3507   57.8351    0.3872   57.8434    0.3855   57.8385    0.3409   57.8893    0.4005   57.8872    0.4034   -0.0000   -0.0000
  0.750   57.9384    0.3547   57.9246    0.3914   57.9329    0.3897   57.9280    0.3449   57.9790    0.4049   57.9768    0.4078   -0.0000   -0.0000
  0.760   58.0294    0.3588   58.0155    0.3956   58.0239    0.3939   58.0189    0.3490   58.0701    0.4094   58.0680    0.4122   -0.0000   -0.0000
  0.770   58.1219    0.3628   58.1079    0.3999   58.1163    0.3982   58.1114    0.3531   58.1628    0.4139   58.1606    0.4167   -0.0000   -0.0000
  0.780   58.2159    0.3670   58.2019    0.4043   58.2103    0.4026   58.2054    0.3572   58.2570    0.4184   58.2548    0.4212   -0.0000   -0.0000
  0.790   58.3115    0.3711   58.2974    0.4087   58.3059    0.4070   58.3010    0.3614   58.3527    0.4230   58.3506    0.4258   -0.0000   -0.0000
  0.800   58.4086    0.3754   58.3945    0.4131   58.4030    0.4114   58.3981    0.3656   58.4500    0.4276   58.4479    0.4305   -0.0000   -0.0000
  0.810   58.5073    0.3796   58.4931    0.4176   58.5017    0.4159   58.4968    0.3699   58.5489    0.4323   58.5468    0.4351   -0.0000   -0.0000
  0.820   58.6076    0.3839   58.5933    0.4221   58.6019    0.4205   58.5970    0.3742   58.6494    0.4371   58.6472    0.4399   -0.0000   -0.0000
  0.830   58.7095    0.3883   58.6951    0.4267   58.7038    0.4250   58.6989    0.3786   58.7515    0.4418   58.7493    0.4447   -0.0000   -0.0000
  0.840   58.8130    0.3927   58.7985    0.4314   58.8073    0.4297   58.8024    0.3830   58.8551    0.4467   58.8530    0.4495   -0.0000   -0.0000
  0.850   58.9181    0.3971   58.9036    0.4361   58.9124    0.4344   58.9075    0.3875   58.9605    0.4516   58.9583    0.4544   -0.0000   -0.0000
  0.860   59.0249    0.4016   59.0103    0.4408   59.0191    0.4391   59.0143    0.3920   59.0675    0.4565   59.0653    0.4594   -0.0000   -0.0000
  0.870   59.1334    0.4062   59.1187    0.4456   59.1275    0.4439   59.1227    0.3965   59.1761    0.4616   59.1739    0.4644   -0.0000   -0.0000
  0.880   59.2435    0.4108   59.2288    0.4504   59.2376    0.4488   59.2329    0.4011   59.2864    0.4666   59.2843    0.4694   -0.0000   -0.0000
  0.890   59.3553    0.4154   59.3405    0.4554   59.3495    0.4537   59.3447    0.4058   59.3985    0.4718   59.3963    0.4746   -0.0000   -0.0000
  0.900   59.4689    0.4201   59.4540    0.4603   59.4630    0.4586   59.4582    0.4105   59.5123    0.4769   59.5101    0.4798   -0.0000   -0.0000
  0.910   59.5842    0.4249   59.5692    0.4653   59.5782    0.4637   59.5735    0.4153   59.6278    0.4822   59.6256    0.4850   -0.0000   -0.0000
  0.920   59.7012    0.4297   59.6862    0.4704   59.6953    0.4687   59.6905    0.4201   59.7450    0.4875   59.7429    0.4903   -0.0000   -0.0000
  0.930   59.8201    0.4346   59.8049    0.4756   59.8141    0.4739   59.8094    0.4250   59.8641    0.4929   59.8619    0.4957   -0.0000   -0.0000
  0.940   59.9407    0.4395   59.9255    0.4808   59.9346    0.4791   59.9300    0.4300   59.9849    0.4983   59.9828    0.5011   -0.0000   -0.0000
  0.950   60.0631    0.4445   60.0478    0.4860   60.0570    0.4844   60.0524    0.4350   60.1076    0.5038   60.1054    0.5066   -0.0000   -0.0000
  0.960   60.1874    0.4496   60.1720    0.4914   60.1813    0.4897   60.1766    0.4401   60.2321    0.5094   60.2299    0.5122   -0.0000   -0.0000
  0.970   60.3135    0.4547   60.2981    0.4968   60.3074    0.4951   60.3027    0.4452   60.3585    0.5150   60.3563    0.5178   -0.0000   -0.0000
  0.980   60.4415    0.4599   60.4260    0.5022   60.4353    0.5006   60.4307    0.4504   60.4867    0.5207   60.4845    0.5235   -0.0000   -0.0000
  0.990   60.5714    0.4651   60.5558    0.5078   60.5652    0.5061   60.5606    0.4557   60.6169    0.5265   60.6147    0.5293   -0.0000   -0.0000
  1.000   60.7032    0.4704   60.6875    0.5134   60.6970    0.5117   60.6924    0.4610   60.7489    0.5324   60.7468    0.5352   -0.0000   -0.0000
  1.010   60.8370    0.4758   60.8212    0.5190   60.8307    0.5174   60.8262    0.4664   60.8829    0.5383   60.8808    0.5411   -0.0000   -0.0000
  1.020   60.9727    0.4813   60.9568    0.5248   60.9664    0.5231   60.9619    0.4718   61.0189    0.5443   61.0168    0.5471   -0.0000   -0.0000
  1.030   61.1104    0.4868   61.0944    0.5306   61.1041    0.5289   61.0996    0.4774   61.1569    0.5504   61.1547    0.5532   -0.0000   -0.0000
  1.040   61.2502    0.4924   61.2341    0.5365   61.2438    0.5348   61.2393    0.4830   61.2969    0.5565   61.2947    0.5593   -0.0000   -0.0000
  1.050   61.3919    0.4980   61.3757    0.5425   61.3855    0.5408   61.3810    0.4886   61.4390    0.5628   61.4368    0.5656   -0.0000   -0.0000
  1.060   61.5358    0.5037   61.5195    0.5485   61.5293    0.5468   61.5249    0.4944   61.5831    0.5691   61.5809    0.5719   -0.0000   -0.0000
  1.070   61.6817    0.5096   61.6653    0.5546   61.6751    0.5530   61.6708    0.5002   61.7293    0.5755   61.7271    0.5783   -0.0000   -0.0000
  1.080   61.8297    0.5154   61.8132    0.5609   61.8231    0.5592   61.8188    0.5061   61.8776    0.5820   61.8754    0.5848   -0.0000   -0.0000
  1.090   61.9799    0.5214   61.9633    0.5671   61.9733    0.5655   61.9690    0.5121   62.0281    0.5885   62.0259    0.5913   -0.0000   -0.0000
  1.100   62.1323    0.5274   62.1156    0.5735   62.1256    0.5718   62.1213    0.5181   62.1807    0.5952   62.1785    0.5980   -0.0000   -0.0000
  1.110   62.2868    0.5336   62.2700    0.5800   62.2801    0.5783   62.2758    0.5243   62.3356    0.6020   62.3334    0.6048   -0.0000   -0.0000
  1.120   62.4436    0.5398   62.4267    0.5865   62.4368    0.5849   62.4326    0.5305   62.4926    0.6088   62.4905    0.6116   -0.0000   -0.0000
  1.130   62.6026    0.5461   62.5856    0.5932   62.5958    0.5915   62.5916    0.5368   62.6520    0.6157   62.6498    0.6185   -0.0000   -0.0000
  1.140   62.7639    0.5524   62.7468    0.5999   62.7570    0.5982   62.7529    0.5432   62.8136    0.6228   62.8114    0.6256   -0.0000   -0.0000
  1.150   62.9275    0.5589   62.9103    0.6067   62.9206    0.6051   62.9165    0.5497   62.9776    0.6299   62.9754    0.6327   -0.0000   -0.0000
  1.160   63.0935    0.5655   63.0761    0.6137   63.0865    0.6120   63.0824    0.5563   63.1439    0.6371   63.1417    0.6399   -0.0000   -0.0000
  1.170   63.2618    0.5721   63.2444    0.6207   63.2548    0.6190   63.2508    0.5629   63.3125    0.6445   63.3104    0.6473   -0.0000   -0.0000
  1.180   63.4326    0.5789   63.4150    0.6278   63.4255    0.6261   63.4215    0.5697   63.4836    0.6519   63.4815    0.6547   -0.0000   -0.0000
  1.190   63.6058    0.5857   63.5881    0.6350   63.5987    0.6333   63.5947    0.5765   63.6572    0.6595   63.6550    0.6623   -0.0000   -0.0000
  1.200   63.7815    0.5926   63.7637    0.6424   63.7743    0.6407   63.7704    0.5835   63.8332    0.6671   63.8311    0.6699   -0.0000   -0.0000
  1.210   63.9597    0.5997   63.9417    0.6498   63.9524    0.6481   63.9486    0.5906   64.0118    0.6749   64.0096    0.6777   -0.0000   -0.0000
  1.220   64.1404    0.6068   64.1223    0.6573   64.1331    0.6556   64.1293    0.5977   64.1929    0.6828   64.1907    0.6856   -0.0000   -0.0000
  1.230   64.3238    0.6141   64.3056    0.6650   64.3164    0.6633   64.3126    0.6050   64.3766    0.6908   64.3744    0.6936   -0.0000   -0.0000
  1.240   64.5097    0.6214   64.4914    0.6727   64.5023    0.6711   64.4986    0.6124   64.5629    0.6989   64.5608    0.7017   -0.0000   -0.0000
  1.250   64.6983    0.6289   64.6799    0.6806   64.6908    0.6789   64.6872    0.6199   64.7520    0.7071   64.7498    0.7099   -0.0000   -0.0000
  1.260   64.8896    0.6365   64.8710    0.6886   64.8821    0.6869   64.8785    0.6275   64.9437    0.7155   64.9415    0.7183   -0.0000   -0.0000
  1.270   65.0837    0.6442   65.0650    0.6967   65.0761    0.6951   65.0725    0.6352   65.1381    0.7240   65.1359    0.7268   -0.0000   -0.0000
  1.280   65.2805    0.6520   65.2617    0.7050   65.2728    0.7033   65.2693    0.6430   65.3354    0.7326   65.3332    0.7354   -0.0000   -0.0000
  1.290   65.4802    0.6599   65.4612    0.7134   65.4724    0.7117   65.4690    0.6510   65.5354    0.7413   65.5333    0.7441   -0.0000   -0.0000
  1.300   65.6827    0.6680   65.6636    0.7219   65.6749    0.7202   65.6715    0.6591   65.7384    0.7502   65.7362    0.7530   -0.0000   -0.0000
  1.310   65.8881    0.6761   65.8688    0.7305   65.8802    0.7288   65.8769    0.6673   65.9442    0.7592   65.9421    0.7620   -0.0000   -0.0000
  1.320   66.0965    0.6844   66.0771    0.7393   66.0886    0.7376   66.0853    0.6756   66.1531    0.7684   66.1509    0.7712   -0.0000   -0.0000
  1.330   66.3079    0.6929   66.2883    0.7482   66.2999    0.7465   66.2967    0.6841   66.3649    0.7777   66.3627    0.7805   -0.0000   -0.0000
  1.340   66.5223    0.7014   66.5026    0.7572   66.5142    0.7555   66.5111    0.6927   66.5798    0.7872   66.5776    0.7900   -0.0000   -0.0000
  1.350   66.7399    0.7102   66.7200    0.7664   66.7317    0.7647   66.7286    0.7014   66.7978    0.7968   66.7956    0.7996   -0.0000   -0.0000
  1.360   66.9606    0.7190   66.9405    0.7758   66.9523    0.7741   66.9493    0.7103   67.0189    0.8066   67.0168    0.8093   -0.0000   -0.0000
  1.370   67.1844    0.7280   67.1642    0.7853   67.1761    0.7836   67.1732    0.7193   67.2433    0.8165   67.2411    0.8192   -0.0000   -0.0000
  1.380   67.4115    0.7371   67.3912    0.7949   67.4031    0.7932   67.4003    0.7285   67.4709    0.8266   67.4687    0.8293   -0.0000   -0.0000
  1.390   67.6420    0.7464   67.6214    0.8047   67.6335    0.8030   67.6307    0.7378   67.7018    0.8368   67.6996    0.8396   -0.0000   -0.0000
  1.400   67.8757    0.7559   67.8550    0.8147   67.8671    0.8130   67.8645    0.7473   67.9361    0.8472   67.9339    0.8500   -0.0000   -0.0000
  1.410   68.1129    0.7655   68.0920    0.8248   68.1042    0.8231   68.1016    0.7569   68.1738    0.8578   68.1716    0.8606   -0.0000   -0.0000
  1.420   68.3536    0.7753   68.3325    0.8351   68.3448    0.8334   68.3423    0.7668   68.4150    0.8686   68.4128    0.8714   -0.0000   -0.0000
  1.430   68.5977    0.7852   68.5765    0.8456   68.5889    0.8439   68.5865    0.7767   68.6597    0.8796   68.6575    0.8823   -0.0000   -0.0000
  1.440   68.8455    0.7953   68.8241    0.8563   68.8366    0.8546   68.8342    0.7869   68.9080    0.8907   68.9058    0.8935   -0.0000   -0.0000
  1.450   69.0969    0.8056   69.0753    0.8671   69.0879    0.8654   69.0856    0.7972   69.1600    0.9021   69.1578    0.9048   -0.0000   -0.0000
  1.460   69.3520    0.8160   69.3303    0.8781   69.3429    0.8765   69.3408    0.8077   69.4157    0.9136   69.4135    0.9163   -0.0000   -0.0000
  1.470   69.6109    0.8267   69.5890    0.8894   69.6017    0.8877   69.5997    0.8184   69.6751    0.9253   69.6730    0.9281   -0.0000   -0.0000
  1.480   69.8737    0.8375   69.8515    0.9008   69.8644    0.8991   69.8624    0.8292   69.9385    0.9373   69.9363    0.9400   -0.0000   -0.0000
  1.490   70.1403    0.8485   70.1180    0.9124   70.1309    0.9107   70.1291    0.8403   70.2057    0.9494   70.2036    0.9521   -0.0000   -0.0000
  1.500   70.4110    0.8597   70.3884    0.9242   70.4014    0.9225   70.3997    0.8516   70.4770    0.9618   70.4748    0.9645   -0.0000   -0.0000
  1.510   70.6856    0.8711   70.6629    0.9363   70.6760    0.9346   70.6744    0.8630   70.7523    0.9744   70.7501    0.9771   -0.0000   -0.0000
  1.520   70.9644    0.8827   70.9415    0.9485   70.9547    0.9468   70.9532    0.8747   71.0317    0.9872   71.0295    0.9899   -0.0000   -0.0000
  1.530   71.2474    0.8946   71.2243    0.9610   71.2376    0.9593   71.2362    0.8866   71.3153    1.0002   71.3132    1.0030   -0.0000   -0.0000
  1.540   71.5347    0.9066   71.5113    0.9737   71.5248    0.9720   71.5235    0.8987   71.6033    1.0135   71.6011    1.0162   -0.0000   -0.0000
  1.550   71.8264    0.9189   71.8027    0.9866   71.8163    0.9850   71.8151    0.9110   71.8956    1.0271   71.8934    1.0298   -0.0000   -0.0000
  1.560   72.1224    0.9314   72.0986    0.9998   72.1122    0.9982   72.1112    0.9236   72.1924    1.0409   72.1902    1.0436   -0.0000   -0.0000
  1.570   72.4230    0.9441   72.3990    1.0133   72.4127    1.0116   72.4119    0.9364   72.4937    1.0549   72.4915    1.0576   -0.0000   -0.0000
  1.580   72.7282    0.9571   72.7039    1.0269   72.7178    1.0253   72.7171    0.9494   72.7996    1.0692   72.7974    1.0719   -0.0000   -0.0000
  1.590   73.0381    0.9703   73.0136    1.0409   73.0276    1.0392   73.0270    0.9627   73.1102    1.0838   73.1081    1.0865   -0.0000   -0.0000
  1.600   73.3528    0.9838   73.3281    1.0551   73.3421    1.0534   73.3417    0.9763   73.4256    1.0987   73.4235    1.1014   -0.0000   -0.0000
  1.610   73.6724    0.9976   73.6474    1.0696   73.6616    1.0679   73.6613    0.9901   73.7460    1.1138   73.7438    1.1165   -0.0000   -0.0000
  1.620   73.9970    1.0116   73.9717    1.0843   73.9860    1.0827   73.9859    1.0042   74.0713    1.1293   74.0692    1.1320   -0.0000   -0.0000
  1.630   74.3266    1.0259   74.3011    1.0994   74.3155    1.0977   74.3155    1.0186   74.4017    1.1450   74.3996    1.1477   -0.0000   -0.0000
  1.640   74.6614    1.0404   74.6356    1.1147   74.6502    1.1131   74.6504    1.0332   74.7373    1.1611   74.7352    1.1638   -0.0000   -0.0000
  1.650   75.0015    1.0553   74.9754    1.1304   74.9901    1.1288   74.9905    1.0482   75.0782    1.1775   75.0761    1.1801   -0.0000   -0.0000
  1.660   75.3470    1.0705   75.3207    1.1464   75.3354    1.1447   75.3360    1.0634   75.4246    1.1942   75.4224    1.1968   -0.0000   -0.0000
  1.670   75.6979    1.0859   75.6714    1.1627   75.6863    1.1610   75.6870    1.0790   75.7764    1.2112   75.7743    1.2139   -0.0000   -0.0000
  1.680   76.0545    1.1017   76.0277    1.1793   76.0427    1.1777   76.0437    1.0948   76.1339    1.2286   76.1318    1.2313   -0.0000   -0.0000
  1.690   76.4169    1.1178   76.3897    1.1963   76.4049    1.1946   76.4060    1.1111   76.4971    1.2464   76.4950    1.2490   -0.0000   -0.0000
  1.700   76.7850    1.1343   76.7576    1.2136   76.7729    1.2120   76.7743    1.1276   76.8662    1.2645   76.8641    1.2671   -0.0000   -0.0000
  1.710   77.1592    1.1511   77.1315    1.2313   77.1469    1.2296   77.1485    1.1445   77.2413    1.2830   77.2392    1.2856   -0.0000   -0.0000
  1.720   77.5394    1.1682   77.5114    1.2493   77.5270    1.2477   77.5288    1.1617   77.6225    1.3019   77.6204    1.3045   -0.0000   -0.0000
  1.730   77.9259    1.1857   77.8976    1.2677   77.9133    1.2661   77.9153    1.1794   78.0099    1.3212   78.0079    1.3238   -0.0000   -0.0000
  1.740   78.3188    1.2036   78.2901    1.2866   78.3060    1.2850   78.3082    1.1974   78.4038    1.3409   78.4017    1.3435   -0.0000   -0.0000
  1.750   78.7182    1.2219   78.6892    1.3058   78.7052    1.3042   78.7077    1.2158   78.8042    1.3611   78.8021    1.3636   -0.0000   -0.0000
  1.760   79.1242    1.2405   79.0949    1.3255   79.1110    1.3238   79.1138    1.2346   79.2113    1.3816   79.2092    1.3842   -0.0000   -0.0000
  1.770   79.5371    1.2596   79.5074    1.3455   79.5237    1.3439   79.5267    1.2538   79.6252    1.4026   79.6231    1.4052   -0.0000   -0.0000
  1.780   79.9569    1.2791   79.9269    1.3661   79.9433    1.3645   79.9466    1.2734   80.0460    1.4241   80.0440    1.4267   -0.0000   -0.0000
  1.790   80.3838    1.2991   80.3534    1.3870   80.3700    1.3854   80.3735    1.2935   80.4741    1.4461   80.4720    1.4487   -0.0000   -0.0000
  1.800   80.8180    1.3195   80.7872    1.4085   80.8040    1.4069   80.8078    1.3140   80.9094    1.4686   80.9074    1.4711   -0.0000   -0.0000
  1.810   81.2596    1.3403   81.2285    1.4304   81.2454    1.4288   81.2495    1.3351   81.3522    1.4915   81.3502    1.4941   -0.0000   -0.0000
  1.820   81.7089    1.3616   81.6774    1.4529   81.6945    1.4513   81.6989    1.3565   81.8026    1.5150   81.8006    1.5175   -0.0000   -0.0000
  1.830   82.1659    1.3835   82.1341    1.4758   82.1513    1.4742   82.1560    1.3785   82.2609    1.5391   82.2589    1.5416   -0.0000   -0.0000
  1.840   82.6310    1.4058   82.5987    1.4993   82.6162    1.4977   82.6212    1.4010   82.7272    1.5637   82.7252    1.5662   -0.0000   -0.0000
  1.850   83.1042    1.4287   83.0715    1.5233   83.0891    1.5218   83.0945    1.4241   83.2017    1.5888   83.1997    1.5913   -0.0000   -0.0000
  1.860   83.5858    1.4521   83.5527    1.5479   83.5705    1.5464   83.5762    1.4477   83.6846    1.6146   83.6826    1.6171   -0.0000   -0.0000
  1.870   84.0760    1.4760   84.0425    1.5731   84.0604    1.5716   84.0665    1.4718   84.1761    1.6410   84.1741    1.6434   -0.0000   -0.0000
  1.880   84.5749    1.5006   84.5410    1.5989   84.5592    1.5974   84.5656    1.4966   84.6764    1.6680   84.6745    1.6705   -0.0000   -0.0000
  1.890   85.0829    1.5257   85.0486    1.6253   85.0669    1.6238   85.0737    1.5219   85.1858    1.6957   85.1839    1.6981   -0.0000   -0.0000
  1.900   85.6001    1.5515   85.5653    1.6524   85.5839    1.6509   85.5911    1.5479   85.7044    1.7241   85.7025    1.7265   -0.0000   -0.0000
  1.910   86.1268    1.5779   86.0916    1.6801   86.1103    1.6786   86.1179    1.5745   86.2326    1.7531   86.2307    1.7555   -0.0000   -0.0000
  1.920   86.6632    1.6050   86.6275    1.7086   86.6464    1.7071   86.6545    1.6018   86.7705    1.7829   86.7686    1.7853   -0.0000   -0.0000
  1.930   87.2096    1.6327   87.1733    1.7377   87.1925    1.7362   87.2010    1.6298   87.3184    1.8134   87.3165    1.8158   -0.0000   -0.0000
  1.940   87.7662    1.6612   87.7294    1.7676   87.7488    1.7661   87.7577    1.6586   87.8765    1.8448   87.8747    1.8471   -0.0000   -0.0000
  1.950   88.3332    1.6904   88.2960    1.7982   88.3155    1.7968   88.3250    1.6880   88.4452    1.8769   88.4434    1.8792   -0.0000   -0.0000
  1.960   88.9111    1.7203   88.8733    1.8297   88.8931    1.8282   88.9030    1.7182   89.0247    1.9098   89.0229    1.9121   -0.0000   -0.0000
  1.970   89.5000    1.7511   89.4617    1.8619   89.4817    1.8605   89.4921    1.7493   89.6153    1.9436   89.6136    1.9459   -0.0000   -0.0000
  1.980   90.1003    1.7826   90.0614    1.8951   90.0816    1.8936   90.0926    1.7811   90.2173    1.9784   90.2156    1.9806   -0.0000   -0.0000
  1.990   90.7122    1.8150   90.6728    1.9291   90.6932    1.9276   90.7047    1.8138   90.8311    2.0140   90.8293    2.0162   -0.0000   -0.0000
  2.000   91.3361    1.8483   91.2961    1.9640   91.3168    1.9626   91.3289    1.8474   91.4568    2.0506   91.4551    2.0528   -0.0000   -0.0000
  2.010   91.9724    1.8825   91.9318    1.9998   91.9527    1.9984   91.9653    1.8819   92.0949    2.0882   92.0933    2.0904   -0.0000   -0.0000
  2.020   92.6213    1.9176   92.5801    2.0367   92.6012    2.0353   92.6145    1.9174   92.7458    2.1268   92.7442    2.1290   -0.0000   -0.0000
  2.030   93.2832    1.9537   93.2414    2.0745   93.2628    2.0732   93.2767    1.9539   93.4097    2.1665   93.4081    2.1686   -0.0000   -0.0000
  2.040   93.9586    1.9908   93.9161    2.1134   93.9378    2.1121   93.9524    1.9914   94.0872    2.2073   94.0856    2.2094   -0.0000   -0.0000
  2.050   94.6478    2.0290   94.6046    2.1535   94.6266    2.1521   94.6418    2.0300   94.7784    2.2493   94.7769    2.2514   -0.0000   -0.0000
  2.060   95.3512    2.0683   95.3073    2.1946   95.3295    2.1933   95.3455    2.0697   95.4840    2.2925   95.4824    2.2945   -0.0000   -0.0000
  2.070   96.0692    2.1087   96.0246    2.2370   96.0471    2.2357   96.0638    2.1105   96.2042    2.3369   96.2027    2.3389   -0.0000   -0.0000
  2.080   96.8022    2.1503   96.7570    2.2806   96.7797    2.2793   96.7972    2.1526   96.9395    2.3826   96.9381    2.3846   -0.0000   -0.0000
  2.090   97.5508    2.1931   97.5048    2.3254   97.5279    2.3242   97.5462    2.1959   97.6904    2.4297   97.6890    2.4316   -0.0000   -0.0000
  2.100   98.3154    2.2372   98.2686    2.3716   98.2920    2.3704   98.3111    2.2405   98.4575    2.4782   98.4561    2.4801   -0.0000   -0.0000
  2.110   99.0965    2.2827   99.0489    2.4192   99.0726    2.4180   99.0926    2.2864   99.2410    2.5281   99.2397    2.5300   -0.0000   -0.0000
  2.120   99.8946    2.3295   99.8462    2.4683   99.8702    2.4671   99.8911    2.3338  100.0417    2.5796  100.0404    2.5814   -0.0000   -0.0000
  2.130  100.7103    2.3778  100.6610    2.5188  100.6854    2.5177  100.7072    2.3827  100.8600    2.6326  100.8587    2.6344   -0.0000   -0.0000
  2.140  101.5441    2.4276  101.4940    2.5710  101.5186    2.5698  101.5414    2.4331  101.6964    2.6873  101.6953    2.6891   -0.0000   -0.0000
  2.150  102.3965    2.4790  102.3455    2.6247  102.3705    2.6236  102.3943    2.4851  102.5517    2.7438  102.5506    2.7455   -0.0000   -0.0000
  2.160  103.2683    2.5320  103.2164    2.6802  103.2417    2.6791  103.2666    2.5388  103.4263    2.8020  103.4253    2.8037   -0.0000   -0.0000
  2.170  104.1601    2.5868  104.1072    2.7375  104.1329    2.7364  104.1588    2.5942  104.3210    2.8622  104.3200    2.8637   -0.0000   -0.0000
  2.180  105.0724    2.6433  105.0186    2.7966  105.0447    2.7956  105.0717    2.6514  105.2365    2.9242  105.2355    2.9258   -0.0000   -0.0000
  2.190  106.0061    2.7017  105.9513    2.8577  105.9777    2.8567  106.0060    2.7106  106.1733    2.9884  106.1724    2.9899   -0.0000   -0.0000
  2.200  106.9619    2.7621  106.9060    2.9208  106.9328    2.9199  106.9623    2.7717  107.1323    3.0547  107.1315    3.0561   -0.0000   -0.0000
  2.210  107.9405    2.8245  107.8835    2.9861  107.9107    2.9852  107.9415    2.8350  108.1142    3.1232  108.1135    3.1246   -0.0000   -0.0000
  2.220  108.9427    2.8891  108.8846    3.0536  108.9122    3.0527  108.9444    2.9004  109.1199    3.1941  109.1192    3.1954   -0.0000   -0.0000
  2.230  109.9694    2.9559  109.9101    3.1234  109.9382    3.1226  109.9717    2.9681  110.1502    3.2674  110.1496    3.2687   -0.0000   -0.0000
  2.240  111.0214    3.0251  110.9609    3.1956  110.9895    3.1949  111.0245    3.0382  111.2059    3.3433  111.2054    3.3445   -0.0000   -0.0000
  2.250  112.0997    3.0967  112.0380    3.2705  112.0670    3.2697  112.1036    3.1108  112.2881    3.4219  112.2876    3.4231   -0.0000   -0.0000
  2.260  113.2053    3.1709  113.1423    3.3480  113.1718    3.3473  113.2100    3.1861  113.3976    3.5034  113.3972    3.5044   -0.0000   -0.0000
  2.270  114.3392    3.2479  114.2748    3.4283  114.3048    3.4277  114.3446    3.2641  114.5355    3.5878  114.5353    3.5888   -0.0000   -0.0000
  2.280  115.5024    3.3277  115.4366    3.5116  115.4671    3.5110  115.5087    3.3450  115.7030    3.6754  115.7028    3.6763   -0.0000   -0.0000
  2.290  116.6961    3.4105  116.6289    3.5980  116.6599    3.5975  116.7034    3.4290  116.9010    3.7662  116.9010    3.7670   -0.0000   -0.0000
  2.300  117.9214    3.4964  117.8528    3.6877  117.8843    3.6873  117.9297    3.5162  118.1309    3.8605  118.1310    3.8612   -0.0000   -0.0000
  2.310  119.1797    3.5857  119.1095    3.7808  119.1416    3.7805  119.1890    3.6068  119.3939    3.9584  119.3941    3.9590   -0.0000   -0.0000
  2.320  120.4722    3.6785  120.4004    3.8776  120.4331    3.8773  120.4826    3.7010  120.6913    4.0601  120.6916    4.0607   -0.0000   -0.0000
  2.330  121.8004    3.7749  121.7269    3.9782  121.7602    3.9779  121.8119    3.7989  122.0245    4.1659  122.0250    4.1663   -0.0000   -0.0000
  2.340  123.1657    3.8752  123.0905    4.0828  123.1243    4.0826  123.1784    3.9008  123.3950    4.2759  123.3956    4.2762   -0.0000   -0.0000
  2.350  124.5696    3.9797  124.4926    4.1916  124.5271    4.1915  124.5836    4.0069  124.8044    4.3904  124.8051    4.3906   -0.0000   -0.0000
  2.360  126.0139    4.0884  125.9349    4.3050  125.9701    4.3049  126.0292    4.1173  126.2543    4.5096  126.2552    4.5097   -0.0000   -0.0000
  2.370  127.5001    4.2018  127.4192    4.4230  127.4550    4.4231  127.5169    4.2325  127.7464    4.6339  127.7475    4.6338   -0.0000   -0.0000
  2.380  129.0303    4.3199  128.9473    4.5461  128.9838    4.5463  129.0485    4.3526  129.2827    4.7634  129.2839    4.7632   -0.0000   -0.0000
  2.390  130.6062    4.4432  130.5211    4.6745  130.5584    4.6748  130.6260    4.4779  130.8650    4.8985  130.8663    4.8982   -0.0000   -0.0000
  2.400  132.2300    4.5720  132.1427    4.8086  132.1807    4.8089  132.2515    4.6088  132.4954    5.0396  132.4970    5.0392   -0.0000   -0.0000
  2.410  133.9039    4.7064  133.8143    4.9485  133.8531    4.9490  133.9272    4.7455  134.1762    5.1870  134.1780    5.1864   -0.0000   -0.0000
  2.420  135.6302    4.8470  135.5381    5.0948  135.5778    5.0954  135.6553    4.8885  135.9097    5.3410  135.9117    5.3402   -0.0000   -0.0000
  2.430  137.4114    4.9941  137.3167    5.2479  137.3573    5.2486  137.4385    5.0381  137.6983    5.5021  137.7005    5.5012   -0.0000   -0.0000
  2.440  139.2501    5.1481  139.1527    5.4080  139.1942    5.4089  139.2793    5.1948  139.5448    5.6708  139.5473    5.6697   -0.0000   -0.0000
  2.450  141.1491    5.3094  141.0489    5.5758  141.0913    5.5768  141.1805    5.3590  141.4519    5.8476  141.4546    5.8463   -0.0000   -0.0000
  2.460  143.1114    5.4786  143.0082    5.7517  143.0516    5.7528  143.1451    5.5312  143.4227    6.0329  143.4257    6.0314   -0.0000   -0.0000
  2.470  145.1402    5.6561  145.0339    5.9362  145.0783    5.9375  145.1764    5.7120  145.4604    6.2273  145.4637    6.2256   -0.0000   -0.0000
  2.480  147.2389    5.8426  147.1293    6.1299  147.1748    6.1314  147.2778    5.9019  147.5684    6.4315  147.5720    6.4296   -0.0000   -0.0000
  2.490  149.4112    6.0386  149.2982    6.3335  149.3448    6.3352  149.4529    6.1015  149.7505    6.6461  149.7544    6.6439   -0.0000   -0.0000
  2.500  151.6609    6.2448  151.5443    6.5477  151.5921    6.5495  151.7057    6.3116  152.0104    6.8719  152.0147    6.8695   -0.0000   -0.0000
  2.510  153.9924    6.4620  153.8719    6.7731  153.9210    6.7752  154.0403    6.5329  154.3525    7.1096  154.3572    7.1070   -0.0000   -0.0000
  2.520  156.4100    6.6909  156.2855    7.0107  156.3359    7.0130  156.4613    6.7662  156.7814    7.3602  156.7864    7.3573   -0.0000   -0.0000
  2.530  158.9187    6.9324  158.7899    7.2614  158.8416    7.2639  158.9736    7.0124  159.3018    7.6246  159.3073    7.6214   -0.0000   -0.0000
  2.540  161.5236    7.1875  161.3903    7.5260  161.4435    7.5288  161.5824    7.2726  161.9191    7.9038  161.9251    7.9003   -0.0000   -0.0000
  2.550  164.2304    7.4572  164.0923    7.8058  164.1470    7.8089  164.2933    7.5478  164.6389    8.1991  164.6454    8.1952   -0.0000   -0.0000
  2.560  167.0451    7.7428  166.9020    8.1018  166.9583    8.1052  167.1124    7.8391  167.4674    8.5116  167.4743    8.5074   -0.0000   -0.0000
  2.570  169.9744    8.0454  169.8259    8.4155  169.8839    8.4192  170.0464    8.1479  170.4111    8.8427  170.4186    8.8381   -0.0000   -0.0000
  2.580  173.0253    8.3664  172.8710    8.7482  172.9308    8.7522  173.1024    8.4757  173.4772    9.1941  173.4854    9.1891   -0.0000   -0.0000
  2.590  176.2056    8.7076  176.0452    9.1016  176.1069    9.1060  176.2880    8.8240  176.6735    9.5673  176.6824    9.5619   -0.0000   -0.0000
  2.600  179.5236    9.0704  179.3567    9.4773  179.4204    9.4822  179.6118    9.1946  180.0085    9.9644  180.0181    9.9585   -0.0000   -0.0000
  2.610  182.9885    9.4570  182.8146    9.8775  182.8805    9.8828  183.0830    9.5895  183.4914   10.3873  183.5017   10.3810   -0.0000   -0.0000
  2.620  186.6102    9.8694  186.4289   10.3043  186.4970   10.3101  186.7114   10.0109  187.1321   10.8384  187.1433   10.8316   -0.0000   -0.0000
  2.630  190.3997   10.3099  190.2103   10.7602  190.2809   10.7665  190.5080   10.4613  190.9417   11.3204  190.9538   11.3131   -0.0000   -0.0000
  2.640  194.3687   10.7814  194.1708   11.2478  194.2440   11.2547  194.4848   10.9433  194.9322   11.8362  194.9453   11.8282   -0.0000   -0.0000
  2.650  198.5305   11.2867  198.3233   11.7703  198.3993   11.7778  198.6549   11.4601  199.1167   12.3889  199.1308   12.3804   -0.0000   -0.0000
  2.660  202.8993   11.8293  202.6822   12.3311  202.7611   12.3393  203.0327   12.0152  203.5097   12.9824  203.5250   12.9732   -0.0000   -0.0000
  2.670  207.4910   12.4129  207.2632   12.9341  207.3452   12.9430  207.6342   12.6124  208.1272   13.6208  208.1438   13.6108   -0.0000   -0.0000
  2.680  212.3231   13.0418  212.0836   13.5837  212.1691   13.5935  212.4769   13.2562  212.9868   14.3087  213.0047   14.2980   -0.0000   -0.0000
  2.690  217.4149   13.7210  217.1628   14.2850  217.2520   14.2957  217.5802   13.9517  218.1080   15.0516  218.1275   15.0400   -0.0000   -0.0000
  2.700  222.7880   14.4559  222.5222   15.0436  222.6153   15.0553  222.9657   14.7045  223.5125   15.8555  223.5337   15.8430   -0.0000   -0.0000
  2.710  228.4663   15.2531  228.1855   15.8661  228.2830   15.8789  228.6576   15.5213  229.2245   16.7274  229.2475   16.7140   -0.0000   -0.0000
  2.720  234.4765   16.1197  234.1793   16.7599  234.2815   16.7740  234.6826   16.4095  235.2709   17.6754  235.2959   17.6609   -0.0000   -0.0000
  2.730  240.8487   17.0643  240.5335   17.7337  240.6408   17.7492  241.0709   17.3780  241.6819   18.7086  241.7091   18.6929   -0.0000   -0.0000
  2.740  247.6164   18.0965  247.2815   18.7975  247.3943   18.8145  247.8563   18.4367  248.4914   19.8377  248.5211   19.8208   -0.0000   -0.0000
  2.750  254.8175   19.2277  254.4609   19.9628  254.5798   19.9816  255.0769   19.5973  255.7377   21.0751  255.7702   21.0569   -0.0000   -0.0000
  2.760  262.4952   20.4712  262.1145   21.2432  262.2401   21.2640  262.7759   20.8736  263.4641   22.4354  263.4997   22.4157   -0.0000   -0.0000
  2.770  270.6982   21.8425  270.2907   22.6547  270.4236   22.6776  271.0024   22.2816  271.7198   23.9357  271.7588   23.9144   -0.0000   -0.0000
  2.780  279.4821   23.3600  279.0448   24.2158  279.1858   24.2413  279.8122   23.8403  280.5608   25.5960  280.6038   25.5729   -0.0000   -0.0000
  2.790  288.9108   25.0455  288.4401   25.9490  288.5901   25.9774  289.2697   25.5722  290.0516   27.4402  290.0989   27.4152   -0.0000   -0.0000
  2.800  299.0578   26.9250  298.5495   27.8807  298.7095   27.9124  299.4485   27.5042  300.2660   29.4970  300.3183   29.4699   -0.0000   -0.0000
  2.810  310.0079   29.0298  309.4572   30.0429  309.6284   30.0785  310.4341   29.6689  311.2897   31.8006  311.3476   31.7713   -0.0000   -0.0000
  2.820  321.8601   31.3979  321.2611   32.4743  321.4449   32.5144  322.3258   32.1053  323.2221   34.3928  323.2865   34.3609   -0.0000   -0.0000
  2.830  334.7299   34.0756  334.0757   35.2219  334.2737   35.2673  335.2398   34.8615  336.1795   37.3243  336.2513   37.2897   -0.0000   -0.0000
  2.840  348.7533   37.1199  348.0358   38.3440  348.2499   38.3955  349.3128   37.9966  350.2988   40.6578  350.3792   40.6201   -0.0000   -0.0000
  2.850  364.0914   40.6016  363.3006   41.9123  363.5330   41.9712  364.7067   41.5838  365.7417   44.4710  365.8322   44.4300   -0.0000   -0.0000
  2.860  380.9364   44.6094  380.0602   46.0172  380.3137   46.0849  381.6146   45.7154  382.7014   48.8615  382.8035   48.8168   -0.0000   -0.0000
  2.870  399.5192   49.2561  398.5427   50.7730  398.8204   50.8514  400.2686   50.5080  401.4094   53.9531  401.5254   53.9043   -0.0000   -0.0000
  2.880  420.1195   54.6859  419.0242   56.3262  419.3302   56.4175  420.9496   56.1116  422.1461   59.9045  422.2785   59.8513   -0.0000   -0.0000
  2.890  443.0795   61.0866  441.8420   62.8670  442.1811   62.9744  444.0010   62.7212  445.2536   66.9223  445.4057   66.8643   -0.0000   -0.0000
  2.900  468.8208   68.7057  467.4115   70.6458  467.7898   70.7733  469.8462   70.5938  471.1528   75.2788  471.3288   75.2156   -0.0000   -0.0000
  2.910  497.8694   77.8746  496.2499   79.9979  496.6749   80.1509  499.0124   80.0742  500.3671   85.3386  500.5725   85.2701   -0.0001   -0.0000
  2.920  530.8876   89.0452  529.0076   91.3794  529.4888   91.5653  532.1631   91.6325  533.5533   97.5993  533.7952   97.5254   -0.0007   -0.0000
  2.930  568.7190  102.8461  566.5114  105.4240  567.0610  105.6530  570.1422  105.9231  571.5440  112.7527  571.8317  112.6738   -0.0051   -0.0000
  2.940  612.4509  120.1713  609.8242  123.0311  610.4579  123.3179  614.0348  123.8770  615.4047  131.7824  615.7510  131.6997   -0.0313   -0.0000
  2.950  663.4998  142.3247  660.3272  145.5100  661.0655  145.8762  665.2501  146.8529  666.5104  156.1223  666.9331  156.0386   -0.1671   -0.0001
  2.960  723.7292  171.2640  719.8299  174.8216  720.6999  175.2996  725.6331  176.8910  726.6444  187.9218  727.1684  187.8430   -0.7737   -0.0004
  2.970  795.6025  210.0254  790.7125  213.9983  791.7498  214.6389  797.6039  217.1554  798.1119  230.5071  798.7733  230.4451   -3.1291   -0.0015
  2.980  882.3570  263.4963  876.0801  267.9044  877.3306  268.7902  884.3003  272.7349  883.8284  289.2091  884.6810  289.1881  -11.1219   -0.0056
  2.990  988.1027  339.8766  979.8278  344.6669  981.3474  345.9376  989.6016  352.1506  987.2240  372.9059  988.3485  372.9764  -34.8243   -0.0184
  3.000 1117.4594  453.5511 1106.2231  458.4683 1108.0659  460.3719 1117.5779  470.2858 1111.4137  496.9652 1112.9321  497.2367  -95.7176   -0.0536
  3.010 1273.2793  630.8491 1257.5587  635.0961 1259.7224  638.0902 1269.7308  654.1307 1255.7792  688.8113 1257.8645  689.5321 -228.7124   -0.1376
  3.020 1447.1286  921.0487 1424.6621  922.3902 1426.8728  927.3264 1434.3017  953.1891 1403.8297  997.1490 1406.6532  998.9052 -468.6895   -0.3099
  3.030 1584.1087 1410.7936 1552.5129 1403.2931 1553.4585 1411.5668 1549.2433 1450.3093 1484.4951 1497.2531 1487.7979 1501.3754 -812.1358   -0.6083
  3.040 1477.2741 2192.7847 1439.5502 2162.6058 1434.8530 2174.8482 1402.1465 2218.1185 1282.7982 2230.6924 1284.0113 2239.1309 *********   -1.0403
  3.050  672.5205 3045.4902  658.4571 2979.2918  641.8166 2987.8517  578.3096 3004.2330  453.6678 2907.5677  446.2819 2917.1830 *********   -1.5576
  3.060 -729.8709 3025.9216 -685.5974 2972.0537 -703.2300 2964.2008 -761.7078 2934.5959 -764.7434 2786.8357 -776.8240 2786.4595 *********   -2.0673
  3.070 ********* 2128.6105 ********* 2124.4070 ********* 2111.4434 ********* 2063.6980 ********* 1987.8160 ********* 1981.5982 *********   -2.4793
  3.080 ********* 1336.1934 ********* 1348.5296 ********* 1339.6053 ********* 1302.9813 ********* 1280.0878 ********* 1274.8550 -762.4404   -2.7595
  3.090 *********  860.4284 *********  871.0518 *********  865.7125 *********  842.4191 *********  838.9004 *********  835.4886 -610.4444   -2.9838
  3.100 *********  590.6559 *********  595.8988 *********  592.5279 *********  577.3613 *********  579.3677 *********  577.3134 *********   -3.4747
  3.110 *********  431.2768 *********  433.1796 *********  430.3804 *********  418.6886 *********  422.4822 *********  421.3778 *********   -4.5677
  3.120 -962.4279  291.8335 -954.0912  301.0709 -951.6824  298.8697 -939.9227  292.1220 -927.3094  298.4563 -926.7849  297.5757 *********   -5.5937
  3.130 -835.1759  211.3440 -832.6710  219.4257 -830.6714  218.3425 -821.4938  215.6227 -813.4706  220.7528 -813.0511  220.0679 -964.3580   -5.9481
  3.140 -738.5404  164.3031 -737.9566  170.1561 -736.3934  169.4566 -729.3218  168.1825 -723.6848  172.2321 -723.3058  171.6705 -131.8705   -5.9966
  3.150 -661.9325  131.1222 -662.0660  135.4463 -660.7850  134.9394 -655.1316  134.3898 -651.0203  137.6367 -650.6718  137.1820   -8.9393   -5.9999
  3.160 -598.9262  106.4787 -599.3655  109.7582 -598.2809  109.3698 -593.6543  109.2456 -590.5923  111.8697 -590.2743  111.5010   -0.3868   -6.0000
  3.170 -545.9821   87.6681 -546.5561   90.2071 -545.6156   89.8981 -541.7699   90.0376 -539.4576   92.1677 -539.1689   91.8663   -0.0143   -6.0000
  3.180 -500.7999   73.0016 -501.4291   74.9984 -500.5977   74.7451 -497.3652   75.0505 -495.6030   76.7835 -495.3411   76.5348   -0.0010   -6.0000
  3.190 -461.7544   61.3563 -462.3998   62.9456 -461.6525   62.7326 -458.9128   63.1417 -457.5631   64.5519 -457.3250   64.3451   -0.0001   -6.0000
  3.200 -427.6453   51.9605 -428.2876   53.2369 -427.6057   53.0537 -425.2696   53.5252 -424.2344   54.6711 -424.0174   54.4978   -0.0000   -6.0000
  3.210 -397.5604   44.2701 -398.1905   45.3023 -397.5597   45.1415 -395.5595   45.6474 -394.7678   46.5748 -394.5693   46.4289   -0.0000   -6.0000
  3.220 -370.7916   37.8934 -371.4060   38.7322 -370.8149   38.5884 -369.0984   39.1091 -368.4972   39.8549 -368.3151   39.7316   -0.0000   -6.0000
  3.230 -346.7791   32.5430 -347.3776   33.2269 -346.8166   33.0963 -345.3431   33.6178 -344.8925   34.2116 -344.7248   34.1072   -0.0000   -6.0000
  3.240 -325.0729   28.0043 -325.6572   28.5631 -325.1183   28.4427 -323.8555   28.9547 -323.5246   29.4207 -323.3698   29.3324   -0.0000   -6.0000
  3.250 -305.3054   24.1150 -305.8783   24.5721 -305.3543   24.4595 -304.2767   24.9542 -304.0414   25.3124 -303.8982   25.2378   -0.0000   -6.0000
  3.260 -287.1711   20.7504 -287.7363   21.1245 -287.2206   21.0181 -286.3079   21.4890 -286.1488   21.7562 -286.0161   21.6936   -0.0000   -6.0000
  3.270 -270.4113   17.8140 -270.9733   18.1202 -270.4594   18.0187 -269.6954   18.4603 -269.5965   18.6509 -269.4736   18.5988   -0.0017   -6.0000
  3.280 -254.8020   15.2305 -255.3659   15.4815 -254.8473   15.3839 -254.2193   15.7910 -254.1672   15.9175 -254.0535   15.8748   -0.0426   -6.0000
  3.290 -240.1438   12.9412 -240.7159   13.1477 -240.1856   13.0533 -239.6835   13.4208 -239.6664   13.4945 -239.5617   13.4603   -0.6851   -6.0003
  3.300 -226.2535   10.9008 -226.8413   11.0721 -226.2913   10.9807 -225.9074   11.3028 -225.9146   11.3349 -225.8190   11.3082   -7.1675   -6.0029
  3.310 -212.9553    9.0758 -213.5681    9.2203 -212.9891    9.1321 -212.7177    9.4023 -212.7386    9.4039 -212.6528    9.3838  -48.7844   -6.0208
  3.320 -200.0721    7.4434 -200.7220    7.5687 -200.1021    7.4845 -199.9389    7.6951 -199.9625    7.6794 -199.8879    7.6644 -216.0333   -6.1002
  3.330 -187.4128    5.9895 -188.1162    6.1033 -187.4400    6.0244 -187.3820    6.1670 -187.3961    6.1511 -187.3351    6.1381 -622.4262   -6.3290
  3.340 -174.7447    4.7062 -175.5256    4.8154 -174.7708    4.7456 -174.8182    4.8115 -174.8119    4.8221 -174.7655    4.8035 *********   -6.7577
  3.350 -161.7245    3.6440 -162.6193    3.7506 -161.7531    3.7021 -161.9183    3.6760 -161.8935    3.7462 -161.8509    3.7143 *********   -7.2807
  3.360 -148.0095    3.0270 -149.0625    3.1261 -148.0491    3.1227 -148.3385    2.9602 -148.2876    3.1119 -148.2439    3.0807 *********   -7.6958
  3.370 -133.1930    3.0211 -134.4739    3.1072 -133.2594    3.1791 -133.6565    2.8345 -133.5481    3.1312 -133.5210    3.1012 -585.8092   -7.9111
  3.380 -116.4813    4.0290 -118.1107    4.0745 -116.6050    4.2863 -117.0884    3.7048 -116.9049    4.2770 -116.9085    4.2303 -211.6761   -7.9889
  3.390  -96.6886    7.0577  -98.8705    6.9708  -96.9353    7.4686  -97.4577    6.5703  -97.2227    7.6611  -97.2684    7.5618 -111.7298   -8.0299
  3.400  -72.0748   14.4746  -75.1502   13.9782  -72.5939   15.1098  -73.0378   13.7909  -72.9365   15.8775  -73.0206   15.6449 -238.9324   -8.1177
  3.410  -40.7221   32.2419  -45.1587   30.4968  -41.8667   33.1352  -41.9630   31.3236  -42.8503   35.2849  -42.8654   34.7435 -603.2894   -8.3394
  3.420   -5.4504   75.2449  -11.0464   69.9311   -8.0114   76.0597   -7.2808   73.9359  -12.4763   80.2902  -11.8380   79.3043 *********   -8.7718
  3.430    0.2622  165.1298   -1.5337  153.2571   -4.5953  163.5944   -2.5399  162.1189  -17.8150  163.3226  -15.6743  163.3969 *********   -9.3999
  3.440  -96.6351  242.6580  -86.6877  233.0606  -98.3465  235.5523  -97.1929  236.5805 -106.6604  220.7224 -106.2167  222.7265 *********  -10.0756
  3.450 -198.0330  198.4580 -188.4764  199.6291 -194.1431  194.4055 -195.1902  193.7101 -190.3447  181.7911 -190.9376  182.6416 *********  -10.6231
  3.460 -220.2026  133.3617 -215.9413  136.6979 -216.9665  132.6861 -216.9325  130.6788 -210.8206  125.9840 -211.2858  126.3850 -994.8732  -10.9887
  3.470 -213.1249   93.3267 -211.3464   95.8177 -211.1792   93.5184 -210.2983   91.6278 -205.7310   89.8717 -206.1331   90.1166 -721.3746  -11.2538
  3.480 -200.9857   70.3476 -200.1240   71.8906 -199.7882   70.6079 -198.5986   68.9863 -195.2867   68.3021 -195.6618   68.4551 -770.6150  -11.5370
  3.490 -189.3555   56.7013 -187.9599   57.7224 -188.5366   56.8175 -187.0730   55.3770 -184.5001   55.1043 -184.9274   55.1565 *********  -14.4470
  3.500 -179.8959   48.4147 -179.4584   49.2135 -179.2232   48.4018 -177.8766   46.8906 -175.8332   46.8448 -176.2009   46.8223 *********  -15.0189
  3.510 -173.1371   43.3221 -172.6076   43.8218 -172.4315   43.1665 -170.7327   41.3857 -168.9524   41.5192 -169.3224   41.3649 *********  -15.7942
  3.520 -170.2967   37.8528 -169.5880   38.4168 -169.3377   37.7641 -166.6905   36.0281 -165.1587   36.4925 -165.3900   36.1497 *********  -16.6835
  3.530 -165.8070   28.0110 -165.3119   28.8294 -164.8814   28.3692 -161.5790   27.7894 -160.6020   28.4573 -160.5622   28.1647 *********  -17.4837
  3.540 -156.5664   21.0824 -156.3781   21.8078 -156.0000   21.5746 -153.1747   21.9592 -152.5904   22.4561 -152.5061   22.3274 *********  -18.0303
  3.550 -148.1410   17.9569 -148.0823   18.5201 -147.7947   18.3795 -145.5454   19.0656 -145.1207   19.4048 -145.0672   19.3440 -782.1627  -18.3177
  3.560 -141.2908   16.1659 -141.2851   16.6044 -141.0583   16.5046 -139.1985   17.2488 -138.8600   17.4926 -138.8300   17.4564 -336.5084  -18.4414
  3.570 -135.4912   14.8532 -135.5098   15.2001 -135.3234   15.1236 -133.7222   15.8596 -133.4441   16.0422 -133.4280   16.0163 -130.0381  -18.4892
  3.580 -130.3840   13.7768 -130.4150   14.0548 -130.2569   13.9937 -128.8374   14.7050 -128.6065   14.8450 -128.5986   14.8243  -48.3899  -18.5069
  3.590 -125.7695   12.8535 -125.8070   13.0784 -125.6699   13.0284 -124.3856   13.7126 -124.1932   13.8209 -124.1902   13.8031  -17.3625  -18.5133
  3.600 -121.5299   12.0459 -121.5710   12.2288 -121.4499   12.1873 -120.2709   12.8457 -120.1105   12.9294 -120.1107   12.9136   -5.8224  -18.5155
  3.610 -117.5898   11.3322 -117.6329   11.4813 -117.5244   11.4463 -116.4306   12.0811 -116.2970   12.1454 -116.2992   12.1311   -1.7949  -18.5161
  3.620 -113.8975   10.6973 -113.9416   10.8190 -113.8433   10.7890 -112.8202   11.4025 -112.7093   11.4512 -112.7128   11.4380   -0.5167  -18.5163
  3.630 -110.4151   10.1300 -110.4598   10.2290 -110.3697   10.2031 -109.4066   10.7972 -109.3151   10.8333 -109.3195   10.8210   -0.1565  -18.5164
  3.640 -107.1137    9.6213 -107.1587    9.7016 -107.0755    9.6790 -106.1641   10.2553 -106.0891   10.2812 -106.0941   10.2698   -0.0772  -18.5164
  3.650 -103.9704    9.1642 -104.0157    9.2288 -103.9381    9.2088 -103.0720    9.7687 -103.0111    9.7865 -103.0165    9.7759   -0.0825  -18.5164
  3.660 -100.9667    8.7527 -101.0121    8.8042 -100.9393    8.7864 -100.1134    9.3310 -100.0645    9.3424 -100.0702    9.3326   -0.1218  -18.5165
  3.670  -98.0870    8.3820  -98.1325    8.4227  -98.0638    8.4065  -97.2737    8.9367  -97.2351    8.9435  -97.2411    8.9343   -0.1886  -18.5165
  3.680  -95.3180    8.0482  -95.3638    8.0798  -95.2986    8.0651  -94.5407    8.5816  -94.5108    8.5851  -94.5171    8.5765   -0.2905  -18.5167
  3.690  -92.6485    7.7481  -92.6946    7.7722  -92.6323    7.7586  -91.9038    8.2621  -91.8813    8.2636  -91.8877    8.2556   -0.4422  -18.5168
  3.700  -90.0685    7.4790  -90.1150    7.4970  -90.0553    7.4843  -89.3534    7.9753  -89.3371    7.9760  -89.3437    7.9687   -0.6647  -18.5171
  3.710  -87.5690    7.2388  -87.6161    7.2520  -87.5586    7.2400  -86.8812    7.7189  -86.8700    7.7200  -86.8768    7.7132   -0.9865  -18.5174
  3.720  -85.1423    7.0260  -85.1901    7.0354  -85.1344    7.0239  -84.4796    7.4911  -84.4725    7.4937  -84.4795    7.4875   -1.4457  -18.5180
  3.730  -82.7809    6.8394  -82.8296    6.8461  -82.7756    6.8349  -82.1416    7.2906  -82.1378    7.2958  -82.1450    7.2901   -2.0917  -18.5187
  3.740  -80.4785    6.6781  -80.5281    6.6830  -80.4755    6.6720  -79.8609    7.1164  -79.8596    7.1253  -79.8670    7.1201   -2.9881  -18.5198
  3.750  -78.2286    6.5419  -78.2795    6.5459  -78.2281    6.5349  -77.6315    6.9681  -77.6320    6.9819  -77.6396    6.9771   -4.2146  -18.5214
  3.760  -76.0258    6.4307  -76.0780    6.4346  -76.0278    6.4236  -75.4479    6.8457  -75.4495    6.8654  -75.4574    6.8611   -5.8694  -18.5235
  3.770  -73.8645    6.3450  -73.9183    6.3496  -73.8690    6.3384  -73.3049    6.7494  -73.3070    6.7762  -73.3152    6.7723   -8.0703  -18.5265
  3.780  -71.7397    6.2856  -71.7952    6.2918  -71.7469    6.2803  -71.1975    6.6801  -71.1995    6.7152  -71.2081    6.7118  -10.9562  -18.5305
  3.790  -69.6463    6.2540  -69.7040    6.2625  -69.6564    6.2505  -69.1210    6.6392  -69.1224    6.6838  -69.1313    6.6807  -14.6857  -18.5359
  3.800  -67.5799    6.2520  -67.6399    6.2636  -67.5930    6.2511  -67.0707    6.6284  -67.0710    6.6839  -67.0803    6.6812  -19.4355  -18.5431
  3.810  -65.5358    6.2823  -65.5986    6.2977  -65.5522    6.2845  -65.0424    6.6503  -65.0412    6.7182  -65.0509    6.7158  -25.3958  -18.5524
  3.820  -63.5098    6.3480  -63.5757    6.3682  -63.5299    6.3542  -63.0319    6.7081  -63.0287    6.7899  -63.0389    6.7879  -32.7637  -18.5644
  3.830  -61.4980    6.4534  -61.5675    6.4792  -61.5221    6.4641  -61.0353    6.8060  -61.0299    6.9035  -61.0406    6.9017  -41.7338  -18.5798
  3.840  -59.4967    6.6036  -59.5702    6.6359  -59.5253    6.6197  -59.0492    6.9491  -59.0414    7.0641  -59.0526    7.0625  -52.4863  -18.5991
  3.850  -57.5029    6.8051  -57.5810    6.8449  -57.5365    6.8272  -57.0707    7.1437  -57.0602    7.2783  -57.0720    7.2769  -65.1728  -18.6230
  3.860  -55.5140    7.0656  -55.5975    7.1140  -55.5533    7.0947  -55.0975    7.3978  -55.0843    7.5541  -55.0967    7.5528  -79.9007  -18.6524
  3.870  -53.5290    7.3949  -53.6186    7.4528  -53.5748    7.4316  -53.1285    7.7207  -53.1128    7.9014  -53.1260    7.9001  -96.7156  -18.6879
  3.880  -51.5482    7.8043  -51.6449    7.8728  -51.6014    7.8495  -51.1644    8.1238  -51.1466    8.3316  -51.1605    8.3303 -115.5858  -18.7304
  3.890  -49.5742    8.3076  -49.6792    8.3879  -49.6360    8.3620  -49.2082    8.6208  -49.1890    8.8587  -49.2036    8.8572 -136.3872  -18.7805
  3.900  -47.6135    8.9205  -47.7280    9.0139  -47.6852    8.9850  -47.2663    9.2272  -47.2468    9.4986  -47.2622    9.4967 -158.8927  -18.8389
  3.910  -45.6770    9.6611  -45.8027    9.7687  -45.7602    9.7363  -45.3503    9.9608  -45.3320   10.2691  -45.3482   10.2667 -182.7659  -18.9061
  3.920  -43.7827   10.5485  -43.9215   10.6715  -43.8792   10.6350  -43.4782   10.8403  -43.4636   11.1893  -43.4806   11.1863 -207.5614  -18.9823
  3.930  -41.9575   11.6016  -42.1116   11.7413  -42.0696   11.6999  -41.6775   11.8842  -41.6697   12.2777  -41.6874   12.2737 -232.7332  -19.0679
  3.940  -40.2399   12.8360  -40.4119   12.9935  -40.3701   12.9460  -39.9867   13.1073  -39.9900   13.5486  -40.0082   13.5435 -257.6499  -19.1626
  3.950  -38.6816   14.2586  -38.8743   14.4347  -38.8325   14.3799  -38.4576   14.5155  -38.4772   15.0076  -38.4957   15.0011 -281.6188  -19.2661
  3.960  -37.3474   15.8602  -37.5642   16.0557  -37.5218   15.9917  -37.1548   16.0987  -37.1970   16.6432  -37.2156   16.6350 -303.9160  -19.3777
  3.970  -36.3108   17.6058  -36.5555   17.8209  -36.5114   17.7457  -36.1513   17.8206  -36.2230   18.4175  -36.2411   18.4076 -323.8221  -19.4967
  3.980  -35.6433   19.4252  -35.9200   19.6599  -35.8721   19.5711  -35.5174   19.6101  -35.6252   20.2570  -35.6424   20.2454 -340.6613  -19.6219
  3.990  -35.3953   21.2091  -35.7085   21.4627  -35.6537   21.3578  -35.3017   21.3573  -35.4510   22.0496  -35.4668   22.0365 -353.8405  -19.7520
  4.000  -35.5728   22.8167  -35.9272   23.0877  -35.8606   22.9652  -35.5085   22.9218  -35.7020   23.6531  -35.7158   23.6388 -362.8868  -19.8853
  4.010  -36.1179   24.1000  -36.5181   24.3860  -36.4339   24.2459  -36.0783   24.1566  -36.3149   24.9204  -36.3266   24.9055 -367.4807  -20.0204
  4.020  -36.9066   24.9396  -37.3571   25.2372  -37.2491   25.0820  -36.8867   24.9441  -37.1617   25.7355  -37.1712   25.7207 -367.4840  -20.1554
  4.030  -37.7712   25.2788  -38.2755   25.5840  -38.1384   25.4182  -37.7661   25.2293  -38.0725   26.0468  -38.0799   26.0326 -362.9609  -20.2888
  4.040  -38.5391   25.1370  -39.0995   25.4454  -38.9301   25.2754  -38.5451   25.0324  -38.8748   25.8787  -38.8805   25.8655 -354.1933  -20.4190
  4.050  -39.0705   24.5969  -39.6886   24.9048  -39.4860   24.7373  -39.0856   24.4365  -39.4314   25.3181  -39.4358   25.3063 -341.6908  -20.5445
  4.060  -39.2798   23.7756  -39.9567   24.0801  -39.7223   23.9211  -39.3030   23.5578  -39.6600   24.4848  -39.6635   24.4743 -326.1980  -20.6644
  4.070  -39.1351   22.7938  -39.8724   23.0930  -39.6087   22.9470  -39.1664   22.5159  -39.5320   23.5002  -39.5350   23.4910 -308.7040  -20.7779
  4.080  -38.6448   21.7548  -39.4452   22.0472  -39.1553   21.9173  -38.6846   21.4124  -39.0591   22.4677  -39.0617   22.4596 -290.4636  -20.8846
  4.090  -37.8405   20.7364  -38.7084   21.0206  -38.3952   20.9084  -37.8891   20.3235  -38.2753   21.4643  -38.2779   21.4573 -273.0481  -20.9849
  4.100  -36.7627   19.7915  -37.7039   20.0650  -37.3699   19.9712  -36.8196   19.2999  -37.2233   20.5418  -37.2259   20.5356 -258.4509  -21.0799
  4.110  -35.4512   18.9528  -36.4734   19.2108  -36.1204   19.1358  -35.5151   18.3722  -35.9448   19.7311  -35.9476   19.7256 -249.2554  -21.1715
  4.120  -33.9408   18.2389  -35.0525   18.4731  -34.6817   18.4168  -34.0080   17.5566  -34.4760   19.0487  -34.4791   19.0438 -248.8109  -21.2630
  4.130  -32.2594   17.6595  -33.4690   17.8565  -33.0810   17.8185  -32.3233   16.8599  -32.8461   18.5010  -32.8496   18.4964 -261.2491  -21.3590
  4.140  -30.4292   17.2188  -31.7417   17.3580  -31.3366   17.3380  -30.4771   16.2841  -31.0766   18.0879  -31.0807   18.0834 -291.1022  -21.4659
  4.150  -28.4673   16.9172  -29.8795   16.9698  -29.4570   16.9673  -28.4782   15.8287  -29.1822   17.8039  -29.1872   17.7990 -342.5572  -21.5918
  4.160  -26.3892   16.7506  -27.8797   16.6802  -27.4389   16.6946  -26.3275   15.4931  -27.1702   17.6379  -27.1765   17.6318 -419.4551  -21.7460
  4.170  -24.2082   16.7030  -25.7232   16.4768  -25.2626   16.5070  -24.0193   15.2775  -25.0379   17.5701  -25.0457   17.5613 -528.4184  -21.9402
  4.180  -21.9265   16.7335  -23.3691   16.3535  -22.8855   16.3975  -21.5413   15.1845  -22.7608   17.5673  -22.7694   17.5528 -684.3132  -22.1917
  4.190  -19.4940   16.7677  -20.7508   16.3258  -20.2386   16.3812  -18.8737   15.2199  -20.2636   17.5886  -20.2693   17.5647 -904.6984  -22.5241
  4.200  -16.7431   16.7629  -17.7889   16.4539  -17.2377   16.5193  -15.9885   15.3939  -17.3837   17.6451  -17.3780   17.6113 *********  -22.9564
  4.210  -13.4585   16.8639  -14.4244   16.8502  -13.8191   16.9282  -12.8485   15.7236  -13.9432   17.9125  -13.9181   17.8765 *********  -23.4784
  4.220   -9.6157   17.3399  -10.6474   17.6525   -9.9701   17.7536   -9.4067   16.2349   -9.9331   18.6712   -9.8886   18.6441 *********  -24.0418
  4.230   -5.3271   18.3215   -6.4973   18.9912   -5.7327   19.1330   -5.6029   16.9640   -5.4846   20.0998   -5.4270   20.0898 *********  -24.5952
  4.240   -0.6186   19.8272   -2.0271   20.9478   -1.1613   21.1513   -1.3584   17.9622   -0.6892   22.2579   -0.6270   22.2669 *********  -25.1356
  4.250    4.5940   21.9112    2.7664   23.5944    3.7489   23.8862    3.4305   19.3045    4.4666   25.2142    4.5280   25.2399 *********  -25.6956
  4.260   10.4525   24.7209    7.9301   27.0675    9.0468   27.4834    8.9013   21.1019   10.0527   29.1358   10.1111   29.1758 *********  -26.2583
  4.270   17.1315   28.5232   13.5142   31.6041   14.7846   32.1950   15.2382   23.5229   16.1424   34.3287   16.1972   34.3818 *********  -26.7369
  4.280   24.8281   33.7568   19.5286   37.5734   20.9719   38.4142   22.6912   26.8302   22.7599   41.2847   22.8108   41.3511 -921.2646  -27.0754
  4.290   33.7337   41.1365   25.8755   45.5126   27.5029   46.7175   31.6022   31.4495   29.7912   50.7572   29.8374   50.8385 -626.1566  -27.3055
  4.300   43.9344   51.8440   32.2293   56.1594   34.0234   57.9038   42.4369   38.1020   36.7910   63.8664   36.8304   63.9654 -507.2475  -27.4920
  4.310   55.0964   67.8396   37.8268   70.4278   39.6918   72.9754   55.8057   48.0760   42.5545   82.1799   42.5827   82.3005 -518.1783  -27.6824
  4.320   65.5695   92.2111   41.1882   89.2078   42.8386   92.9226   72.3819   63.8120   44.2208  107.5094   44.2297  107.6561 -611.8466  -27.9072
  4.330   70.2193  128.7572   40.0006  112.8912   40.7463  118.1541   92.3122   90.2036   35.7673  140.4743   35.7418  140.6502 -777.1283  -28.1928
  4.340   57.5630  177.8007   31.5100  141.1878   29.9696  147.9957  112.2941  137.2379    7.6494  175.5196    7.5625  175.7222 *********  -28.5648
  4.350   14.2027  227.0720   11.2333  174.6281    5.4217  181.4669  113.0543  221.3691  -43.7176  193.9992  -43.9138  194.1958 *********  -29.0351
  4.360  -62.7617  252.9828  -36.4142  207.9686  -46.6323  210.3163   31.3164  331.3179  -97.6321  178.7316  -97.9446  178.8002 *********  -29.5812
  4.370 -150.7750  219.8197 -111.9658  198.1945 -120.2671  193.5238 -143.8301  331.6793 -129.0761  142.6814 -129.3230  142.5570 *********  -30.1466
  4.380 -185.1954  146.7007 -151.1052  143.5764 -154.0221  137.5422 -228.2569  212.6065 -138.4991  107.3216 -138.5952  107.1724 *********  -30.6804
  4.390 -177.7121   92.9128 -152.4637   98.2540 -152.6574   93.8785 -221.1324  121.3817 -136.4290   80.2627 -136.4575   80.1645 *********  -31.1821
  4.400 -160.9830   61.8079 -143.0219   69.9813 -142.3695   67.1360 -194.6317   72.8613 -129.9673   61.0050 -129.9786   60.9474 *********  -31.6980
  4.410 -145.1493   43.6041 -132.3406   52.2089 -131.5281   50.3588 -170.2818   47.1434 -122.3784   47.4310 -122.3881   47.3977 *********  -32.2445
  4.420 -131.8899   32.3283 -122.6020   40.4549 -121.8420   39.2203 -150.8954   32.5815 -114.9588   37.7431 -114.9706   37.7239 *********  -32.7470
  4.430 -121.0197   24.9473 -114.1431   32.3113 -113.4888   31.4620 -135.7298   23.7518 -108.1556   30.6907 -108.1700   30.6800 -979.0428  -33.1068
  4.440 -112.0687   19.8853 -106.8689   26.4523 -106.3219   25.8506 -123.7291   18.0745 -102.0707   25.4461 -102.0875   25.4408 -548.6578  -33.3084
  4.450 -104.6115   16.2774 -100.6005   22.1053 -100.1477   21.6675 -114.0573   14.2436  -96.6742   21.4641  -96.6929   21.4626 -268.6772  -33.4071
  4.460  -98.3154   13.6222  -95.1647   18.7967  -94.7904   18.4706 -106.1143   11.5536  -91.8925   18.3822  -91.9127   18.3833 -134.4562  -33.4566
  4.470  -92.9302   11.6151  -90.4143   16.2234  -90.1043   15.9751  -99.4764    9.6015  -87.6435   15.9547  -87.6649   15.9579  -73.2104  -33.4835
  4.480  -88.2681   10.0630  -86.2293   14.1844  -85.9716   13.9917  -93.8418    8.1451  -83.8507   14.0122  -83.8731   14.0170  -41.4444  -33.4987
  4.490  -84.1875    8.8390  -82.5135   12.5423  -82.2982   12.3900  -88.9924    7.0327  -80.4470   12.4356  -80.4702   12.4417  -23.2321  -33.5072
  4.500  -80.5805    7.8572  -79.1896   11.2009  -79.0090   11.0786  -84.7675    6.1656  -77.3754   11.1393  -77.3993   11.1467  -12.5894  -33.5119
  4.510  -77.3635    7.0580  -76.1955   10.0914  -76.0432    9.9915  -81.0468    5.4779  -74.5881   10.0614  -74.6127   10.0698   -6.5145  -33.5142
  4.520  -74.4714    6.3989  -73.4811    9.1631  -73.3521    9.0805  -77.7386    4.9239  -72.0453    9.1555  -72.0705    9.1649   -3.1966  -33.5154
  4.530  -71.8524    5.8490  -71.0055    8.3788  -70.8957    8.3094  -74.7721    4.4717  -69.7136    8.3871  -69.7394    8.3974   -1.4820  -33.5160
  4.540  -69.4652    5.3855  -68.7353    7.7101  -68.6415    7.6509  -72.0915    4.0981  -67.5652    7.7297  -67.5916    7.7409   -0.6480  -33.5162
  4.550  -67.2764    4.9912  -66.6429    7.1353  -66.5622    7.0842  -69.6528    3.7861  -65.5768    7.1629  -65.6038    7.1750   -0.2670  -33.5163
  4.560  -65.2587    4.6530  -64.7052    6.6376  -64.6356    6.5928  -67.4204    3.5231  -63.7287    6.6709  -63.7563    6.6838   -0.1037  -33.5163
  4.570  -63.3894    4.3607  -62.9031    6.2037  -62.8427    6.1640  -65.3652    3.2996  -62.0043    6.2409  -62.0325    6.2547   -0.0379  -33.5164
  4.580  -61.6500    4.1064  -61.2204    5.8231  -61.1676    5.7875  -63.4637    3.1080  -60.3893    5.8630  -60.4181    5.8776   -0.0131  -33.5164
  4.590  -60.0246    3.8839  -59.6432    5.4876  -59.5969    5.4552  -61.6962    2.9428  -58.8716    5.5291  -58.9010    5.5445   -0.0042  -33.5164
  4.600  -58.5000    3.6881  -58.1600    5.1901  -58.1190    5.1604  -60.0461    2.7995  -57.4407    5.2327  -57.4709    5.2489   -0.0013  -33.5164
  4.610  -57.0649    3.5150  -56.7605    4.9253  -56.7240    4.8977  -58.4997    2.6745  -56.0878    4.9683  -56.1186    4.9854   -0.0004  -33.5164
  4.620  -55.7097    3.3613  -55.4362    4.6886  -55.4033    4.6626  -57.0452    2.5648  -54.8048    4.7316  -54.8364    4.7495   -0.0001  -33.5164
  4.630  -54.4260    3.2243  -54.1795    4.4762  -54.1496    4.4515  -55.6726    2.4684  -53.5851    4.5189  -53.6174    4.5376   -0.0000  -33.5164
  4.640  -53.2067    3.1018  -52.9838    4.2849  -52.9564    4.2613  -54.3733    2.3832  -52.4225    4.3271  -52.4556    4.3467   -0.0000  -33.5164
  4.650  -52.0454    2.9918  -51.8434    4.1122  -51.8179    4.0894  -53.1398    2.3077  -51.3120    4.1537  -51.3459    4.1742   -0.0000  -33.5164
  4.660  -50.9368    2.8930  -50.7532    3.9558  -50.7293    3.9336  -51.9657    2.2407  -50.2487    3.9965  -50.2835    4.0178   -0.0000  -33.5164
  4.670  -49.8759    2.8039  -49.7088    3.8138  -49.6860    3.7921  -50.8452    2.1811  -49.2286    3.8536  -49.2643    3.8759   -0.0000  -33.5164
  4.680  -48.8585    2.7235  -48.7062    3.6847  -48.6841    3.6633  -49.7735    2.1280  -48.2481    3.7235  -48.2846    3.7467   -0.0000  -33.5164
  4.690  -47.8809    2.6509  -47.7418    3.5671  -47.7202    3.5458  -48.7461    2.0807  -47.3038    3.6049  -47.3413    3.6290   -0.0000  -33.5164
  4.700  -46.9397    2.5852  -46.8125    3.4597  -46.7912    3.4386  -47.7592    2.0386  -46.3928    3.4965  -46.4313    3.5215   -0.0000  -33.5164
  4.710  -46.0318    2.5258  -45.9154    3.3617  -45.8941    3.3406  -46.8092    2.0012  -45.5124    3.3973  -45.5519    3.4234   -0.0000  -33.5164
  4.720  -45.1546    2.4721  -45.0481    3.2721  -45.0265    3.2509  -45.8932    1.9680  -44.6602    3.3066  -44.7009    3.3337   -0.0000  -33.5164
  4.730  -44.3056    2.4237  -44.2081    3.1901  -44.1860    3.1688  -45.0082    1.9386  -43.8342    3.2236  -43.8760    3.2517   -0.0000  -33.5164
  4.740  -43.4826    2.3799  -43.3934    3.1152  -43.3707    3.0937  -44.1519    1.9128  -43.0322    3.1475  -43.0752    3.1768   -0.0000  -33.5164
  4.750  -42.6836    2.3406  -42.6021    3.0467  -42.5785    3.0249  -43.3220    1.8902  -42.2525    3.0779  -42.2967    3.1083   -0.0000  -33.5164
  4.760  -41.9069    2.3054  -41.8324    2.9842  -41.8078    2.9621  -42.5164    1.8707  -41.4935    3.0143  -41.5390    3.0458   -0.0000  -33.5164
  4.770  -41.1506    2.2740  -41.0827    2.9271  -41.0570    2.9047  -41.7332    1.8540  -40.7535    2.9562  -40.8004    2.9889   -0.0000  -33.5164
  4.780  -40.4133    2.2462  -40.3515    2.8753  -40.3245    2.8524  -40.9707    1.8400  -40.0313    2.9032  -40.0797    2.9371   -0.0000  -33.5164
  4.790  -39.6936    2.2218  -39.6376    2.8282  -39.6091    2.8049  -40.2274    1.8285  -39.3255    2.8550  -39.3754    2.8902   -0.0000  -33.5164
  4.800  -38.9902    2.2006  -38.9396    2.7856  -38.9095    2.7619  -39.5018    1.8195  -38.6350    2.8113  -38.6863    2.8479   -0.0000  -33.5164
  4.810  -38.3018    2.1825  -38.2564    2.7473  -38.2245    2.7231  -38.7926    1.8128  -37.9585    2.7719  -38.0115    2.8099   -0.0000  -33.5164
  4.820  -37.6274    2.1673  -37.5868    2.7131  -37.5530    2.6883  -38.0985    1.8083  -37.2950    2.7366  -37.3498    2.7760   -0.0000  -33.5164
  4.830  -36.9658    2.1550  -36.9299    2.6827  -36.8940    2.6574  -37.4183    1.8061  -36.6437    2.7051  -36.7002    2.7460   -0.0000  -33.5164
  4.840  -36.3160    2.1454  -36.2846    2.6561  -36.2466    2.6301  -36.7511    1.8060  -36.0034    2.6774  -36.0618    2.7198   -0.0000  -33.5164
  4.850  -35.6773    2.1386  -35.6502    2.6330  -35.6098    2.6064  -36.0957    1.8081  -35.3734    2.6532  -35.4338    2.6973   -0.0000  -33.5164
  4.860  -35.0486    2.1345  -35.0256    2.6135  -34.9827    2.5862  -35.4513    1.8124  -34.7528    2.6326  -34.8153    2.6783   -0.0001  -33.5164
  4.870  -34.4291    2.1330  -34.4102    2.5973  -34.3646    2.5694  -34.8168    1.8188  -34.1408    2.6153  -34.2055    2.6628   -0.0001  -33.5164
  4.880  -33.8180    2.1342  -33.8031    2.5845  -33.7547    2.5558  -34.1916    1.8273  -33.5367    2.6013  -33.6037    2.6507   -0.0003  -33.5164
  4.890  -33.2146    2.1380  -33.2035    2.5750  -33.1522    2.5455  -33.5746    1.8381  -32.9398    2.5907  -33.0092    2.6419   -0.0005  -33.5164
  4.900  -32.6181    2.1445  -32.6109    2.5688  -32.5563    2.5385  -32.9651    1.8511  -32.3492    2.5832  -32.4212    2.6365   -0.0011  -33.5164
  4.910  -32.0278    2.1538  -32.0244    2.5659  -31.9665    2.5347  -32.3624    1.8664  -31.7644    2.5791  -31.8390    2.6345   -0.0021  -33.5164
  4.920  -31.4431    2.1658  -31.4433    2.5663  -31.3819    2.5342  -31.7658    1.8840  -31.1846    2.5782  -31.2621    2.6358   -0.0041  -33.5164
  4.930  -30.8632    2.1808  -30.8672    2.5700  -30.8019    2.5370  -31.1745    1.9041  -30.6092    2.5806  -30.6898    2.6406   -0.0079  -33.5164
  4.940  -30.2874    2.1987  -30.2952    2.5771  -30.2260    2.5431  -30.5877    1.9268  -30.0376    2.5863  -30.1214    2.6488   -0.0149  -33.5164
  4.950  -29.7152    2.2196  -29.7267    2.5877  -29.6533    2.5527  -30.0049    1.9521  -29.4692    2.5955  -29.5563    2.6605   -0.0276  -33.5164
  4.960  -29.1459    2.2438  -29.1612    2.6019  -29.0833    2.5658  -29.4254    1.9803  -28.9032    2.6082  -28.9939    2.6759   -0.0501  -33.5164
  4.970  -28.5788    2.2713  -28.5979    2.6198  -28.5153    2.5826  -28.8484    2.0114  -28.3390    2.6245  -28.4336    2.6951   -0.0895  -33.5164
  4.980  -28.0133    2.3024  -28.0363    2.6416  -27.9487    2.6032  -28.2733    2.0457  -27.7761    2.6445  -27.8747    2.7183   -0.1570  -33.5165
  4.990  -27.4488    2.3372  -27.4758    2.6674  -27.3829    2.6278  -27.6994    2.0832  -27.2138    2.6685  -27.3167    2.7455   -0.2708  -33.5166
  5.000  -26.8846    2.3761  -26.9156    2.6975  -26.8171    2.6566  -27.1260    2.1244  -26.6513    2.6966  -26.7588    2.7771   -0.4589  -33.5168
  5.010  -26.3201    2.4192  -26.3552    2.7320  -26.2508    2.6898  -26.5525    2.1694  -26.0882    2.7291  -26.2005    2.8132   -0.7642  -33.5170
  5.020  -25.7546    2.4668  -25.7940    2.7714  -25.6831    2.7277  -25.9781    2.2185  -25.5236    2.7662  -25.6412    2.8542   -1.2506  -33.5175
  5.030  -25.1874    2.5195  -25.2311    2.8159  -25.1136    2.7707  -25.4021    2.2720  -24.9569    2.8082  -25.0801    2.9004   -2.0115  -33.5182
  5.040  -24.6178    2.5774  -24.6661    2.8659  -24.5413    2.8191  -24.8238    2.3303  -24.3873    2.8555  -24.5166    2.9521   -3.1796  -33.5194
  5.050  -24.0452    2.6412  -24.0981    2.9219  -23.9656    2.8733  -24.2424    2.3939  -23.8142    2.9084  -23.9499    3.0098   -4.9395  -33.5212
  5.060  -23.4687    2.7113  -23.5264    2.9843  -23.3858    2.9339  -23.6572    2.4632  -23.2367    2.9675  -23.3794    3.0740   -7.5420  -33.5240
  5.070  -22.8877    2.7884  -22.9504    3.0537  -22.8011    3.0014  -23.0673    2.5387  -22.6541    3.0332  -22.8043    3.1452  -11.3185  -33.5282
  5.080  -22.3014    2.8731  -22.3693    3.1309  -22.2106    3.0765  -22.4719    2.6212  -22.0655    3.1061  -22.2238    3.2241  -16.6956  -33.5343
  5.090  -21.7090    2.9662  -21.7823    3.2165  -21.6135    3.1599  -21.8701    2.7112  -21.4701    3.1870  -21.6372    3.3115  -24.2074  -33.5432
  5.100  -21.1097    3.0687  -21.1886    3.3116  -21.0091    3.2525  -21.2610    2.8097  -20.8669    3.2767  -21.0436    3.4082  -34.5017  -33.5559
  5.110  -20.5028    3.1817  -20.5874    3.4170  -20.3963    3.3553  -20.6438    2.9175  -20.2550    3.3761  -20.4421    3.5152  -48.3393  -33.5736
  5.120  -19.8874    3.3064  -19.9780    3.5341  -19.7744    3.4695  -20.0173    3.0358  -19.6335    3.4862  -19.8320    3.6337  -66.5810  -33.5981
  5.130  -19.2627    3.4442  -19.3597    3.6643  -19.1426    3.5966  -19.3808    3.1659  -19.0014    3.6084  -19.2124    3.7650  -90.1605  -33.6312
  5.140  -18.6282    3.5969  -18.7316    3.8093  -18.4999    3.7380  -18.7332    3.3092  -18.3577    3.7441  -18.5825    3.9108 -120.0412  -33.6753
  5.150  -17.9832    3.7663  -18.0933    3.9709  -17.8457    3.8957  -18.0736    3.4674  -17.7015    3.8950  -17.9415    4.0730 -157.1555  -33.7331
  5.160  -17.3274    3.9549  -17.4443    4.1515  -17.1794    4.0718  -17.4011    3.6426  -17.0318    4.0631  -17.2887    4.2537 -202.3309  -33.8075
  5.170  -16.6605    4.1651  -16.7845    4.3537  -16.5006    4.2689  -16.7150    3.8371  -16.3478    4.2507  -16.6238    4.4554 -256.2068  -33.9016
  5.180  -15.9828    4.4002  -16.1141    4.5806  -15.8093    4.4899  -16.0147    4.0536  -15.6490    4.4606  -15.9464    4.6813 -319.1539  -34.0189
  5.190  -15.2953    4.6634  -15.4338    4.8358  -15.1060    4.7380  -15.3001    4.2951  -14.9351    4.6958  -15.2568    4.9347 -391.2125  -34.1627
  5.200  -14.5998    4.9587  -14.7455    5.1230  -14.3920    5.0169  -14.5715    4.5652  -14.2063    4.9597  -14.5560    5.2197 -472.0726  -34.3361
  5.210  -13.8990    5.2899  -14.0521    5.4466  -13.6695    5.3303  -13.8299    4.8677  -13.4634    5.2563  -13.8457    5.5408 -561.1212  -34.5424
  5.220  -13.1978    5.6610  -13.3582    5.8107  -12.9425    5.6821  -13.0774    5.2065  -12.7084    5.5896  -13.1294    5.9027 -657.5815  -34.7840
  5.230  -12.5029    6.0751  -12.6706    6.2190  -12.2165    6.0750  -12.3172    5.5855  -11.9442    5.9633  -12.4121    6.3102 -760.7400  -35.0636
  5.240  -11.8233    6.5336  -11.9990    6.6735  -11.4992    6.5103  -11.5542    6.0075  -11.1755    6.3806  -11.7012    6.7674 -870.2154  -35.3834
  5.250  -11.1710    7.0344  -11.3556    7.1731  -10.8000    6.9859  -10.7947    6.4741  -10.4081    6.8430  -11.0070    7.2769 -986.1431  -35.7458
  5.260  -10.5591    7.5703  -10.7552    7.7111  -10.1293    7.4944  -10.0457    6.9836   -9.6483    7.3492  -10.3428    7.8378 *********  -36.1534
  5.270  -10.0008    8.1257  -10.2126    8.2730   -9.4950    8.0215   -9.3136    7.5308   -8.9016    7.8946   -9.7239    8.4444 *********  -36.6088
  5.280   -9.5042    8.6761   -9.7387    8.8343   -8.8977    8.5452   -8.6011    8.1071   -8.1696    8.4712   -9.1669    9.0840 *********  -37.1146
  5.290   -9.0671    9.1874   -9.3352    9.3609   -8.3243    9.0398   -7.9054    8.7026   -7.4472    9.0714   -8.6880    9.7350 *********  -37.6717
  5.300   -8.6704    9.6207   -8.9883    9.8117   -7.7427    9.4859   -7.2178    9.3118   -6.7235    9.6945   -8.3012   10.3630 *********  -38.2782
  5.310   -8.2718    9.9381   -8.6627   10.1431   -7.1063    9.8857   -6.5308    9.9372   -5.9911   10.3523   -8.0131   10.9115 *********  -38.9281
  5.320   -7.7993   10.1155   -8.2916   10.3185   -6.3753   10.2765   -5.8489   10.5815   -5.2638   11.0617   -7.7960   11.2895 *********  -39.6097
  5.330   -7.1489   10.1728   -7.7683   10.3377   -5.5518   10.7155   -5.1814   11.2262   -4.5785   11.8105   -7.5300   11.3990 *********  -40.3062
  5.340   -6.2333   10.2148   -6.9842   10.2861   -4.6848   11.2216   -4.5072   11.8327   -3.9463   12.5345   -6.9934   11.2530 *********  -40.9975
  5.350   -5.0734   10.3832   -5.9234   10.3079   -3.7967   11.7450   -3.7670   12.3858   -3.3023   13.1695   -6.0218   11.0542 *********  -41.6624
  5.360   -3.7643   10.7280   -4.6583   10.4872   -2.8282   12.2399   -2.8973   12.9096   -2.5414   13.7202   -4.6501   11.0434 *********  -42.2825
  5.370   -2.3463   11.2226   -3.2430   10.8332   -1.6904   12.7339   -1.8477   13.4565   -1.5823   14.2552   -3.0179   11.3373 *********  -42.8446
  5.380   -0.7996   11.8623   -1.6877   11.3500   -0.3310   13.3084   -0.5901   14.1000   -0.3897   14.8696   -1.2379   11.9511 *********  -43.3416
  5.390    0.8967   12.6829    0.0080   12.0619    1.2558   14.0535    0.8739   14.9189    1.0316   15.6566    0.6300   12.8709 *********  -43.7730
  5.400    2.7448   13.7358    1.8384   13.0031    3.0486   15.0447    2.5218   15.9836    2.6527   16.6944    2.5602   14.0897 *********  -44.1427
  5.410    4.7335   15.0731    3.7938   14.2104    5.0187   16.3437    4.3218   17.3540    4.4357   18.0465    4.5427   15.6175 -858.2410  -44.4581
  5.420    6.8475   16.7485    5.8642   15.7245    7.1388   18.0080    6.2403   19.0859    6.3414   19.7703    6.5712   17.4830 -733.5630  -44.7277
  5.430    9.0687   18.8239    8.0397   17.5960    9.3829   20.1032    8.2419   21.2402    8.3296   21.9265    8.6349   19.7341 -632.7635  -44.9603
  5.440   11.3720   21.3768   10.3059   19.8906   11.7194   22.7113   10.2829   23.8898   10.3523   24.5869   10.7104   22.4377 -554.7701  -45.1641
  5.450   13.7165   24.5061   12.6373   22.6946   14.1001   25.9379   12.3022   27.1237   12.3437   27.8388   12.7535   25.6801 -497.8924  -45.3471
  5.460   16.0319   28.3362   14.9867   26.1188   16.4444   29.9160   14.2061   31.0485   14.2057   31.7849   14.6878   29.5660 -460.2863  -45.5163
  5.470   18.1985   33.0171   17.2693   30.3017   18.6164   34.8062   15.8511   35.7834   15.7901   36.5382   16.3890   34.2147 -439.9780  -45.6779
  5.480   20.0184   38.7179   19.3398   35.4076   20.3921   40.7870   17.0191   41.4475   16.8761   42.2069   17.6635   39.7495 -434.6880  -45.8377
  5.490   21.1763   45.6040   20.9580   41.6164   21.4159   48.0265   17.3900   48.1301   17.1469   48.8646   18.2217   46.2749 -441.6580  -46.0000
  5.500   21.1932   53.7818   21.7424   49.0907   21.1521   56.6153   16.5176   55.8345   16.1720   56.4960   17.6496   53.8286 -457.5991  -46.1682
  5.510   19.3925   63.1885   21.1185   57.8987   18.8567   66.4370   13.8278   64.3837   13.4126   64.9138   15.3930   62.2970 -478.7944  -46.3441
  5.520   14.9327   73.4078   18.2968   67.8641   13.6360   76.9628    8.6803   73.2861    8.2808   73.6476   10.7921   71.2782 -501.3398  -46.5283
  5.530    7.0108   83.4459   12.3637   78.3328    4.7041   87.0254    0.5590   81.6033    0.2958   81.8349    3.2418   79.9185 -521.4737  -46.7200
  5.540   -4.6728   91.6494    2.6206   87.9527   -8.0859   94.7919  -10.5719   87.9547  -10.6242   88.2056   -7.4485   86.8519 -535.9369  -46.9169
  5.550  -19.3299   96.0855  -10.7999   94.7628  -23.6544   98.2719  -23.8806   90.8657  -23.8010   91.3279  -20.5927   90.4964 -542.2980  -47.1162
  5.560  -34.9414   95.4711  -26.4257   96.9191  -39.6857   96.3568  -37.6454   89.4686  -37.6625   90.2118  -34.5009   89.7975 -539.1849  -47.3144
  5.570  -49.0252   90.0019  -41.7582   93.7819  -53.5974   89.5842  -49.8843   84.0658  -50.2070   84.9526  -47.0913   84.9135 -526.3801  -47.5078
  5.580  -59.8216   81.2216  -54.4653   86.3557  -63.7777   79.7930  -59.2358   75.9737  -59.9005   76.7692  -56.8630   77.1287 -504.7594  -47.6933
  5.590  -66.8519   71.0766  -63.4086   76.5909  -70.0016   69.0349  -65.3538   66.7910  -66.2413   67.3258  -63.3740   68.0860 -476.0851  -47.8683
  5.600  -70.6085   61.0804  -68.6982   66.3267  -72.9630   58.7695  -68.6585   57.7618  -69.6067   57.9889  -67.0045   59.0905 -442.6878  -48.0310
  5.610  -71.9549   52.0635  -71.1114   56.7403  -73.6256   49.7172  -69.8698   49.5808  -70.7530   49.5393  -68.4683   50.8864 -407.0960  -48.1806
  5.620  -71.7141   44.3203  -71.5418   48.3597  -72.8367   42.0727  -69.6809   42.5043  -70.4283   42.2657  -68.4666   43.7640 -371.6755  -48.3171
  5.630  -70.5154   37.8404  -70.7307   41.2947  -71.2124   35.7586  -68.6297   36.5331  -69.2132   36.1687  -67.5510   37.7457 -338.3366  -48.4415
  5.640  -68.7875   32.4816  -69.2083   35.4489  -69.1580   30.5935  -67.0896   31.5525  -67.5065   31.1213  -66.1097   32.7299 -308.3495  -48.5548
  5.650  -66.8044   28.0651  -67.3249   30.6508  -66.9248   26.3797  -65.3036   27.4121  -65.5642   26.9602  -64.4010   28.5732 -282.2840  -48.6585
  5.660  -64.7331   24.4201  -65.3020   26.7177  -64.6634   22.9379  -63.4223   23.9649  -63.5436   23.5282  -62.5903   25.1300 -260.0657  -48.7541
  5.670  -62.6718   21.3989  -63.2738   23.4810  -62.4618   20.1171  -61.5354   21.0821  -61.5388   20.6883  -60.7808   22.2667 -241.1205  -48.8427
  5.680  -60.6754   18.8804  -61.3161   20.7943  -60.3698   17.7929  -59.6933   18.6568  -59.6044   18.3264  -59.0324   19.8662 -224.5700  -48.9252
  5.690  -58.7725   16.7669  -59.4638   18.5354  -58.4126   15.8621  -57.9225   16.6038  -57.7696   16.3483  -57.3736   17.8290 -209.4358  -49.0022
  5.700  -56.9756   14.9813  -57.7240   16.6082  -56.5975   14.2401  -56.2352   14.8560  -56.0468   14.6770  -55.8101   16.0760 -194.8194  -49.0738
  5.710  -55.2881   13.4621  -56.0887   14.9432  -54.9189   12.8596  -54.6369   13.3609  -54.4366   13.2508  -54.3349   14.5490 -180.0328  -49.1400
  5.720  -53.7078   12.1609  -54.5458   13.4932  -53.3644   11.6699  -53.1288   12.0761  -52.9331   12.0223  -52.9374   13.2087 -164.6693  -49.2005
  5.730  -52.2296   11.0393  -53.0857   12.2259  -51.9196   10.6346  -51.7099   10.9671  -51.5278   10.9556  -51.6093   12.0285 -148.6155  -49.2551
  5.740  -50.8472   10.0666  -51.7030   11.1168  -50.5716    9.7275  -50.3771   10.0050  -50.2119   10.0233  -50.3461   10.9884 -132.0162  -49.3036
  5.750  -49.5536    9.2184  -50.3945   10.1454  -49.3099    8.9289  -49.1262    9.1660  -48.9777    9.2045  -49.1453   10.0712 -115.2055  -49.3460
  5.760  -48.3421    8.4746  -49.1578    9.2932  -48.1262    8.2233  -47.9519    8.4305  -47.8183    8.4823  -48.0055    9.2615  -98.6244  -49.3822
  5.770  -47.2059    7.8192  -47.9900    8.5438  -47.0137    7.5979  -46.8487    7.7823  -46.7276    7.8427  -46.9250    8.5454  -82.7389  -49.4126
  5.780  -46.1389    7.2388  -46.8880    7.8827  -45.9666    7.0418  -45.8111    7.2081  -45.7002    7.2741  -45.9013    7.9101  -67.9711  -49.4376
  5.790  -45.1352    6.7227  -45.8481    7.2974  -44.9795    6.5457  -44.8339    6.6973  -44.7312    6.7668  -44.9318    7.3449  -54.6507  -49.4577
  5.800  -44.1895    6.2618  -44.8664    6.7771  -44.0479    6.1017  -43.9122    6.2407  -43.8159    6.3125  -44.0133    6.8402  -42.9893  -49.4735
  5.810  -43.2970    5.8485  -43.9388    6.3129  -43.1672    5.7030  -43.0413    5.8311  -42.9502    5.9043  -43.1429    6.3880  -33.0752  -49.4856
  5.820  -42.4533    5.4765  -43.0615    5.8972  -42.3336    5.3439  -42.2173    5.4621  -42.1303    5.5363  -42.3171    5.9813  -24.8849  -49.4948
  5.830  -41.6543    5.1406  -42.2307    5.5234  -41.5434    5.0193  -41.4362    5.1286  -41.3526    5.2034  -41.5331    5.6143  -18.3065  -49.5015
  5.840  -40.8966    4.8362  -41.4431    5.1862  -40.7933    4.7251  -40.6948    4.8261  -40.6138    4.9014  -40.7877    5.2821  -13.1665  -49.5063
  5.850  -40.1769    4.5595  -40.6953    4.8808  -40.0802    4.4576  -39.9899    4.5510  -39.9110    4.6266  -40.0784    4.9804   -9.2575  -49.5097
  5.860  -39.4921    4.3073  -39.9843    4.6035  -39.4013    4.2138  -39.3187    4.3000  -39.2416    4.3757  -39.4025    4.7055   -6.3630  -49.5121
  5.870  -38.8396    4.0767  -39.3074    4.3509  -38.7541    3.9908  -38.6787    4.0703  -38.6031    4.1462  -38.7576    4.4544   -4.2751  -49.5136
  5.880  -38.2171    3.8654  -38.6620    4.1201  -38.1363    3.7864  -38.0675    3.8596  -37.9932    3.9357  -38.1416    4.2244   -2.8077  -49.5147
  5.890  -37.6223    3.6711  -38.0460    3.9086  -37.5457    3.5986  -37.4831    3.6659  -37.4099    3.7420  -37.5525    4.0131   -1.8024  -49.5153
  5.900  -37.0532    3.4922  -37.4571    3.7143  -36.9806    3.4256  -36.9236    3.4873  -36.8514    3.5635  -36.9884    3.8186   -1.1310  -49.5158
  5.910  -36.5081    3.3271  -36.8934    3.5354  -36.4390    3.2659  -36.3873    3.3224  -36.3160    3.3986  -36.4476    3.6391   -0.6937  -49.5160
  5.920  -35.9852    3.1743  -36.3533    3.3703  -35.9194    3.1181  -35.8726    3.1697  -35.8020    3.2459  -35.9285    3.4731   -0.4159  -49.5162
  5.930  -35.4832    3.0326  -35.8351    3.2176  -35.4203    2.9811  -35.3781    3.0281  -35.3082    3.1042  -35.4298    3.3192   -0.2437  -49.5162
  5.940  -35.0005    2.9010  -35.3374    3.0760  -34.9404    2.8539  -34.9023    2.8964  -34.8331    2.9726  -34.9502    3.1763   -0.1396  -49.5163
  5.950  -34.5360    2.7786  -34.8588    2.9445  -34.4785    2.7355  -34.4443    2.7739  -34.3756    2.8500  -34.4883    3.0433   -0.0781  -49.5163
  5.960  -34.0886    2.6644  -34.3981    2.8221  -34.0334    2.6251  -34.0027    2.6596  -33.9347    2.7356  -34.0432    2.9194   -0.0427  -49.5163
  5.970  -33.6570    2.5578  -33.9542    2.7080  -33.6042    2.5219  -33.5768    2.5528  -33.5093    2.6287  -33.6139    2.8037   -0.0229  -49.5164
  5.980  -33.2405    2.4581  -33.5260    2.6014  -33.1898    2.4255  -33.1654    2.4528  -33.0984    2.5287  -33.1993    2.6954   -0.0119  -49.5164
  5.990  -32.8381    2.3647  -33.1127    2.5017  -32.7893    2.3351  -32.7678    2.3592  -32.7013    2.4349  -32.7986    2.5940   -0.0061  -49.5164
  6.000  -32.4490    2.2770  -32.7133    2.4083  -32.4021    2.2503  -32.3831    2.2713  -32.3172    2.3469  -32.4111    2.4989   -0.0030  -49.5164
  6.010  -32.0724    2.1946  -32.3270    2.3206  -32.0272    2.1705  -32.0107    2.1887  -31.9452    2.2641  -32.0360    2.4095   -0.0015  -49.5164
  6.020  -31.7077    2.1171  -31.9531    2.2382  -31.6641    2.0955  -31.6498    2.1109  -31.5849    2.1862  -31.6725    2.3254   -0.0007  -49.5164
  6.030  -31.3541    2.0441  -31.5909    2.1607  -31.3121    2.0248  -31.2999    2.0377  -31.2354    2.1128  -31.3202    2.2462   -0.0003  -49.5164
  6.040  -31.0112    1.9752  -31.2397    2.0876  -30.9706    1.9581  -30.9603    1.9685  -30.8963    2.0435  -30.9783    2.1714   -0.0002  -49.5164
  6.050  -30.6782    1.9102  -30.8991    2.0186  -30.6391    1.8951  -30.6305    1.9032  -30.5670    1.9779  -30.6463    2.1008   -0.0001  -49.5164
  6.060  -30.3548    1.8486  -30.5684    1.9535  -30.3170    1.8355  -30.3101    1.8415  -30.2470    1.9160  -30.3238    2.0340   -0.0000  -49.5164
  6.070  -30.0404    1.7904  -30.2470    1.8919  -30.0039    1.7791  -29.9985    1.7830  -29.9359    1.8572  -30.0103    1.9708   -0.0000  -49.5164
  6.080  -29.7346    1.7352  -29.9347    1.8335  -29.6993    1.7256  -29.6953    1.7275  -29.6332    1.8016  -29.7053    1.9108   -0.0000  -49.5164
  6.090  -29.4370    1.6828  -29.6308    1.7782  -29.4028    1.6748  -29.4001    1.6749  -29.3385    1.7487  -29.4084    1.8540   -0.0000  -49.5164
  6.100  -29.1471    1.6331  -29.3350    1.7257  -29.1140    1.6266  -29.1126    1.6250  -29.0514    1.6985  -29.1193    1.8000   -0.0000  -49.5164
  6.110  -28.8647    1.5858  -29.0470    1.6758  -28.8326    1.5807  -28.8324    1.5775  -28.7716    1.6507  -28.8375    1.7486   -0.0000  -49.5164
  6.120  -28.5894    1.5408  -28.7662    1.6284  -28.5583    1.5371  -28.5591    1.5323  -28.4988    1.6053  -28.5627    1.6997   -0.0000  -49.5164
  6.130  -28.3208    1.4980  -28.4925    1.5832  -28.2906    1.4955  -28.2924    1.4892  -28.2326    1.5619  -28.2947    1.6532   -0.0000  -49.5164
  6.140  -28.0587    1.4572  -28.2255    1.5402  -28.0294    1.4558  -28.0321    1.4482  -27.9727    1.5206  -28.0331    1.6088   -0.0000  -49.5164
  6.150  -27.8027    1.4182  -27.9649    1.4992  -27.7743    1.4180  -27.7779    1.4090  -27.7189    1.4811  -27.7776    1.5665   -0.0000  -49.5164
  6.160  -27.5527    1.3810  -27.7105    1.4600  -27.5251    1.3818  -27.5295    1.3717  -27.4709    1.4434  -27.5280    1.5260   -0.0000  -49.5164
  6.170  -27.3083    1.3454  -27.4618    1.4226  -27.2816    1.3473  -27.2866    1.3359  -27.2286    1.4074  -27.2841    1.4873   -0.0000  -49.5164
  6.180  -27.0694    1.3114  -27.2188    1.3869  -27.0434    1.3142  -27.0492    1.3017  -26.9915    1.3729  -27.0455    1.4504   -0.0000  -49.5164
  6.190  -26.8357    1.2789  -26.9812    1.3527  -26.8104    1.2825  -26.8168    1.2690  -26.7596    1.3399  -26.8122    1.4149   -0.0000  -49.5164
  6.200  -26.6069    1.2477  -26.7488    1.3199  -26.5824    1.2522  -26.5894    1.2377  -26.5326    1.3082  -26.5838    1.3810   -0.0000  -49.5164
  6.210  -26.3830    1.2178  -26.5213    1.2885  -26.3591    1.2231  -26.3667    1.2077  -26.3104    1.2779  -26.3603    1.3485   -0.0000  -49.5164
  6.220  -26.1637    1.1891  -26.2986    1.2584  -26.1405    1.1952  -26.1486    1.1789  -26.0927    1.2487  -26.1413    1.3173   -0.0000  -49.5164
  6.230  -25.9489    1.1616  -26.0805    1.2295  -25.9263    1.1683  -25.9349    1.1512  -25.8793    1.2208  -25.9268    1.2874   -0.0000  -49.5164
  6.240  -25.7383    1.1352  -25.8668    1.2018  -25.7163    1.1426  -25.7254    1.1247  -25.6703    1.1939  -25.7165    1.2586   -0.0000  -49.5164
  6.250  -25.5319    1.1098  -25.6573    1.1752  -25.5105    1.1178  -25.5200    1.0992  -25.4652    1.1680  -25.5104    1.2309   -0.0000  -49.5164
  6.260  -25.3295    1.0854  -25.4520    1.1495  -25.3086    1.0940  -25.3185    1.0746  -25.2641    1.1432  -25.3082    1.2043   -0.0000  -49.5164
  6.270  -25.1308    1.0619  -25.2506    1.1249  -25.1105    1.0710  -25.1208    1.0510  -25.0668    1.1192  -25.1098    1.1787   -0.0000  -49.5164
  6.280  -24.9359    1.0392  -25.0530    1.1012  -24.9161    1.0489  -24.9267    1.0283  -24.8732    1.0962  -24.9151    1.1540   -0.0000  -49.5164
  6.290  -24.7446    1.0174  -24.8591    1.0783  -24.7253    1.0277  -24.7362    1.0064  -24.6831    1.0739  -24.7240    1.1303   -0.0000  -49.5164
  6.300  -24.5567    0.9964  -24.6687    1.0563  -24.5378    1.0071  -24.5491    0.9853  -24.4963    1.0525  -24.5364    1.1074   -0.0000  -49.5164
  6.310  -24.3721    0.9762  -24.4817    1.0350  -24.3537    0.9873  -24.3653    0.9650  -24.3129    1.0318  -24.3520    1.0853   -0.0000  -49.5164
  6.320  -24.1908    0.9566  -24.2981    1.0145  -24.1729    0.9682  -24.1846    0.9453  -24.1327    1.0118  -24.1709    1.0639   -0.0000  -49.5164
  6.330  -24.0126    0.9377  -24.1177    0.9948  -23.9951    0.9497  -24.0071    0.9264  -23.9555    0.9925  -23.9929    1.0433   -0.0000  -49.5164
  6.340  -23.8374    0.9195  -23.9403    0.9756  -23.8203    0.9318  -23.8326    0.9081  -23.7814    0.9739  -23.8180    1.0234   -0.0000  -49.5164
  6.350  -23.6652    0.9019  -23.7660    0.9572  -23.6485    0.9146  -23.6609    0.8904  -23.6101    0.9559  -23.6459    1.0042   -0.0000  -49.5164
  6.360  -23.4957    0.8849  -23.5946    0.9393  -23.4795    0.8979  -23.4921    0.8733  -23.4416    0.9384  -23.4767    0.9856   -0.0000  -49.5164
  6.370  -23.3291    0.8684  -23.4260    0.9221  -23.3132    0.8817  -23.3260    0.8568  -23.2759    0.9215  -23.3102    0.9676   -0.0000  -49.5164
  6.380  -23.1651    0.8525  -23.2601    0.9054  -23.1495    0.8661  -23.1625    0.8408  -23.1128    0.9052  -23.1464    0.9502   -0.0000  -49.5164
  6.390  -23.0037    0.8370  -23.0969    0.8892  -22.9885    0.8509  -23.0016    0.8253  -22.9523    0.8894  -22.9851    0.9333   -0.0000  -49.5164
  6.400  -22.8448    0.8221  -22.9363    0.8735  -22.8299    0.8363  -22.8432    0.8103  -22.7942    0.8740  -22.8264    0.9170   -0.0000  -49.5164
  6.410  -22.6883    0.8076  -22.7781    0.8583  -22.6738    0.8220  -22.6872    0.7958  -22.6386    0.8592  -22.6701    0.9011   -0.0000  -49.5164
  6.420  -22.5342    0.7935  -22.6224    0.8436  -22.5201    0.8082  -22.5336    0.7817  -22.4853    0.8447  -22.5162    0.8858   -0.0000  -49.5164
  6.430  -22.3825    0.7799  -22.4690    0.8294  -22.3686    0.7948  -22.3822    0.7681  -22.3343    0.8308  -22.3646    0.8709   -0.0000  -49.5164
  6.440  -22.2329    0.7667  -22.3180    0.8155  -22.2194    0.7818  -22.2331    0.7548  -22.1855    0.8172  -22.2152    0.8564   -0.0000  -49.5164
  6.450  -22.0856    0.7539  -22.1691    0.8021  -22.0723    0.7692  -22.0861    0.7420  -22.0389    0.8040  -22.0680    0.8424   -0.0000  -49.5164
  6.460  -21.9403    0.7415  -22.0224    0.7890  -21.9273    0.7569  -21.9412    0.7295  -21.8943    0.7912  -21.9229    0.8288   -0.0000  -49.5164
  6.470  -21.7971    0.7294  -21.8779    0.7764  -21.7844    0.7450  -21.7984    0.7174  -21.7518    0.7787  -21.7798    0.8155   -0.0000  -49.5164
  6.480  -21.6560    0.7176  -21.7354    0.7641  -21.6435    0.7335  -21.6575    0.7056  -21.6113    0.7666  -21.6388    0.8027   -0.0000  -49.5164
  6.490  -21.5168    0.7062  -21.5948    0.7521  -21.5046    0.7222  -21.5187    0.6942  -21.4728    0.7549  -21.4997    0.7902   -0.0000  -49.5164
  6.500  -21.3795    0.6951  -21.4563    0.7405  -21.3675    0.7112  -21.3817    0.6831  -21.3361    0.7434  -21.3626    0.7780   -0.0000  -49.5164
  6.510  -21.2440    0.6843  -21.3196    0.7291  -21.2323    0.7006  -21.2465    0.6722  -21.2013    0.7323  -21.2272    0.7662   -0.0000  -49.5164
  6.520  -21.1104    0.6738  -21.1847    0.7181  -21.0990    0.6902  -21.1132    0.6617  -21.0683    0.7215  -21.0937    0.7547   -0.0000  -49.5164
  6.530  -20.9785    0.6636  -21.0517    0.7074  -20.9673    0.6801  -20.9816    0.6515  -20.9370    0.7109  -20.9620    0.7435   -0.0000  -49.5164
  6.540  -20.8484    0.6537  -20.9204    0.6970  -20.8374    0.6703  -20.8517    0.6415  -20.8074    0.7006  -20.8320    0.7325   -0.0000  -49.5164
  6.550  -20.7199    0.6440  -20.7909    0.6868  -20.7092    0.6607  -20.7235    0.6318  -20.6795    0.6906  -20.7037    0.7219   -0.0000  -49.5164
  6.560  -20.5931    0.6346  -20.6630    0.6769  -20.5826    0.6514  -20.5969    0.6224  -20.5533    0.6809  -20.5770    0.7116   -0.0000  -49.5164
  6.570  -20.4679    0.6254  -20.5368    0.6673  -20.4576    0.6422  -20.4719    0.6132  -20.4286    0.6714  -20.4519    0.7015   -0.0000  -49.5164
  6.580  -20.3442    0.6164  -20.4121    0.6579  -20.3341    0.6334  -20.3485    0.6042  -20.3055    0.6621  -20.3283    0.6916   -0.0000  -49.5164
  6.590  -20.2221    0.6077  -20.2890    0.6487  -20.2122    0.6247  -20.2266    0.5955  -20.1838    0.6530  -20.2064    0.6820   -0.0000  -49.5164
  6.600  -20.1015    0.5992  -20.1674    0.6398  -20.0918    0.6163  -20.1062    0.5870  -20.0637    0.6442  -20.0858    0.6727   -0.0000  -49.5164
  6.610  -19.9824    0.5909  -20.0474    0.6310  -19.9728    0.6080  -19.9872    0.5787  -19.9451    0.6356  -19.9668    0.6635   -0.0000  -49.5164
  6.620  -19.8646    0.5828  -19.9287    0.6225  -19.8553    0.6000  -19.8697    0.5706  -19.8278    0.6272  -19.8492    0.6546   -0.0000  -49.5164
  6.630  -19.7483    0.5748  -19.8115    0.6142  -19.7391    0.5921  -19.7535    0.5626  -19.7119    0.6190  -19.7330    0.6459   -0.0000  -49.5164
  6.640  -19.6334    0.5671  -19.6957    0.6061  -19.6244    0.5844  -19.6387    0.5549  -19.5974    0.6110  -19.6181    0.6374   -0.0000  -49.5164
  6.650  -19.5197    0.5596  -19.5813    0.5982  -19.5109    0.5769  -19.5253    0.5474  -19.4843    0.6031  -19.5046    0.6291   -0.0000  -49.5164
  6.660  -19.4074    0.5522  -19.4681    0.5904  -19.3988    0.5696  -19.4131    0.5400  -19.3724    0.5955  -19.3924    0.6210   -0.0000  -49.5164
  6.670  -19.2964    0.5450  -19.3563    0.5829  -19.2879    0.5624  -19.3022    0.5328  -19.2618    0.5880  -19.2815    0.6131   -0.0000  -49.5164
  6.680  -19.1866    0.5380  -19.2458    0.5755  -19.1783    0.5554  -19.1926    0.5258  -19.1524    0.5807  -19.1718    0.6054   -0.0000  -49.5164
  6.690  -19.0781    0.5311  -19.1365    0.5683  -19.0699    0.5486  -19.0842    0.5189  -19.0443    0.5735  -19.0634    0.5978   -0.0000  -49.5164
  6.700  -18.9708    0.5244  -19.0284    0.5612  -18.9627    0.5419  -18.9770    0.5122  -18.9374    0.5665  -18.9562    0.5904   -0.0000  -49.5164
  6.710  -18.8646    0.5178  -18.9216    0.5543  -18.8567    0.5353  -18.8709    0.5057  -18.8316    0.5597  -18.8501    0.5831   -0.0000  -49.5164
  6.720  -18.7596    0.5114  -18.8159    0.5475  -18.7518    0.5289  -18.7661    0.4992  -18.7270    0.5530  -18.7452    0.5761   -0.0000  -49.5164
  6.730  -18.6557    0.5051  -18.7113    0.5409  -18.6481    0.5226  -18.6623    0.4930  -18.6235    0.5464  -18.6415    0.5691   -0.0000  -49.5164
  6.740  -18.5530    0.4990  -18.6079    0.5344  -18.5455    0.5165  -18.5597    0.4868  -18.5211    0.5400  -18.5388    0.5623   -0.0000  -49.5164
  6.750  -18.4513    0.4930  -18.5056    0.5281  -18.4440    0.5105  -18.4581    0.4808  -18.4198    0.5337  -18.4372    0.5557   -0.0000  -49.5164
  6.760  -18.3507    0.4871  -18.4044    0.5219  -18.3435    0.5046  -18.3576    0.4749  -18.3196    0.5276  -18.3367    0.5492   -0.0000  -49.5164
  6.770  -18.2512    0.4813  -18.3042    0.5158  -18.2441    0.4988  -18.2582    0.4692  -18.2204    0.5216  -18.2373    0.5428   -0.0000  -49.5164
  6.780  -18.1527    0.4757  -18.2051    0.5099  -18.1457    0.4932  -18.1598    0.4635  -18.1222    0.5157  -18.1389    0.5366   -0.0000  -49.5164
  6.790  -18.0552    0.4701  -18.1070    0.5040  -18.0483    0.4876  -18.0623    0.4580  -18.0251    0.5099  -18.0415    0.5305   -0.0000  -49.5164
  6.800  -17.9587    0.4647  -18.0099    0.4983  -17.9519    0.4822  -17.9659    0.4526  -17.9289    0.5042  -17.9451    0.5245   -0.0000  -49.5164
  6.810  -17.8631    0.4594  -17.9138    0.4927  -17.8565    0.4769  -17.8705    0.4473  -17.8337    0.4987  -17.8496    0.5187   -0.0000  -49.5164
  6.820  -17.7685    0.4542  -17.8187    0.4872  -17.7620    0.4717  -17.7760    0.4421  -17.7394    0.4932  -17.7551    0.5129   -0.0000  -49.5164
  6.830  -17.6749    0.4491  -17.7245    0.4819  -17.6685    0.4665  -17.6824    0.4370  -17.6461    0.4879  -17.6616    0.5073   -0.0000  -49.5164
  6.840  -17.5822    0.4441  -17.6313    0.4766  -17.5759    0.4615  -17.5897    0.4320  -17.5537    0.4826  -17.5690    0.5017   -0.0000  -49.5164
  6.850  -17.4904    0.4392  -17.5390    0.4714  -17.4842    0.4566  -17.4980    0.4271  -17.4622    0.4775  -17.4772    0.4963   -0.0000  -49.5164
  6.860  -17.3994    0.4344  -17.4476    0.4663  -17.3934    0.4518  -17.4071    0.4223  -17.3715    0.4725  -17.3864    0.4910   -0.0000  -49.5164
  6.870  -17.3094    0.4297  -17.3570    0.4614  -17.3034    0.4470  -17.3172    0.4176  -17.2818    0.4675  -17.2964    0.4858   -0.0000  -49.5164
  6.880  -17.2202    0.4251  -17.2674    0.4565  -17.2143    0.4424  -17.2280    0.4130  -17.1929    0.4627  -17.2073    0.4807   -0.0000  -49.5164
  6.890  -17.1319    0.4205  -17.1786    0.4517  -17.1261    0.4378  -17.1397    0.4085  -17.1048    0.4579  -17.1191    0.4757   -0.0000  -49.5164
  6.900  -17.0444    0.4161  -17.0906    0.4470  -17.0387    0.4333  -17.0523    0.4040  -17.0176    0.4532  -17.0317    0.4707   -0.0000  -49.5164
  6.910  -16.9577    0.4117  -17.0035    0.4424  -16.9521    0.4289  -16.9656    0.3997  -16.9312    0.4486  -16.9450    0.4659   -0.0000  -49.5164
  6.920  -16.8718    0.4074  -16.9171    0.4378  -16.8663    0.4246  -16.8798    0.3954  -16.8455    0.4441  -16.8592    0.4611   -0.0000  -49.5164
  6.930  -16.7867    0.4032  -16.8316    0.4334  -16.7812    0.4204  -16.7947    0.3912  -16.7607    0.4397  -16.7742    0.4565   -0.0000  -49.5164
  6.940  -16.7023    0.3991  -16.7469    0.4290  -16.6970    0.4162  -16.7104    0.3871  -16.6766    0.4353  -16.6900    0.4519   -0.0000  -49.5164
  6.950  -16.6188    0.3950  -16.6629    0.4247  -16.6135    0.4121  -16.6269    0.3830  -16.5933    0.4311  -16.6065    0.4474   -0.0000  -49.5164
  6.960  -16.5360    0.3910  -16.5797    0.4205  -16.5308    0.4081  -16.5442    0.3790  -16.5108    0.4269  -16.5238    0.4430   -0.0000  -49.5164
  6.970  -16.4539    0.3871  -16.4973    0.4164  -16.4488    0.4041  -16.4621    0.3751  -16.4290    0.4227  -16.4418    0.4386   -0.0000  -49.5164
  6.980  -16.3726    0.3832  -16.4156    0.4123  -16.3676    0.4002  -16.3808    0.3713  -16.3479    0.4187  -16.3605    0.4344   -0.0000  -49.5164
  6.990  -16.2919    0.3795  -16.3346    0.4083  -16.2870    0.3964  -16.3002    0.3675  -16.2675    0.4147  -16.2800    0.4302   -0.0000  -49.5164
  7.000  -16.2120    0.3758  -16.2543    0.4044  -16.2072    0.3926  -16.2204    0.3638  -16.1878    0.4108  -16.2002    0.4260   -0.0000  -49.5164
  7.010  -16.1328    0.3721  -16.1747    0.4005  -16.1280    0.3889  -16.1412    0.3602  -16.1088    0.4069  -16.1210    0.4220   -0.0000  -49.5164
  7.020  -16.0543    0.3685  -16.0958    0.3967  -16.0496    0.3853  -16.0627    0.3566  -16.0305    0.4031  -16.0426    0.4180   -0.0000  -49.5164
  7.030  -15.9764    0.3650  -16.0176    0.3929  -15.9718    0.3817  -15.9848    0.3531  -15.9529    0.3994  -15.9648    0.4141   -0.0000  -49.5164
  7.040  -15.8992    0.3615  -15.9401    0.3893  -15.8946    0.3782  -15.9077    0.3496  -15.8759    0.3958  -15.8877    0.4102   -0.0000  -49.5164
  7.050  -15.8226    0.3581  -15.8633    0.3856  -15.8182    0.3748  -15.8311    0.3462  -15.7996    0.3922  -15.8112    0.4065   -0.0000  -49.5164
  7.060  -15.7467    0.3547  -15.7870    0.3821  -15.7423    0.3714  -15.7553    0.3428  -15.7239    0.3886  -15.7354    0.4027   -0.0000  -49.5164
  7.070  -15.6715    0.3514  -15.7115    0.3786  -15.6671    0.3680  -15.6800    0.3396  -15.6489    0.3851  -15.6602    0.3991   -0.0000  -49.5164
  7.080  -15.5968    0.3482  -15.6365    0.3751  -15.5926    0.3647  -15.6054    0.3363  -15.5744    0.3817  -15.5857    0.3955   -0.0000  -49.5164
  7.090  -15.5228    0.3450  -15.5622    0.3718  -15.5186    0.3615  -15.5314    0.3331  -15.5006    0.3783  -15.5117    0.3919   -0.0000  -49.5164
  7.100  -15.4494    0.3419  -15.4885    0.3684  -15.4453    0.3583  -15.4580    0.3300  -15.4274    0.3750  -15.4384    0.3884   -0.0000  -49.5164
  7.110  -15.3766    0.3388  -15.4154    0.3651  -15.3725    0.3551  -15.3852    0.3269  -15.3548    0.3717  -15.3656    0.3850   -0.0000  -49.5164
  7.120  -15.3044    0.3357  -15.3429    0.3619  -15.3003    0.3520  -15.3130    0.3239  -15.2828    0.3685  -15.2935    0.3816   -0.0000  -49.5164
  7.130  -15.2327    0.3327  -15.2710    0.3587  -15.2287    0.3490  -15.2414    0.3209  -15.2113    0.3653  -15.2219    0.3783   -0.0000  -49.5164
  7.140  -15.1616    0.3298  -15.1997    0.3556  -15.1577    0.3460  -15.1703    0.3179  -15.1405    0.3622  -15.1509    0.3750   -0.0000  -49.5164
  7.150  -15.0911    0.3269  -15.1289    0.3525  -15.0873    0.3430  -15.0998    0.3150  -15.0702    0.3591  -15.0805    0.3718   -0.0000  -49.5164
  7.160  -15.0212    0.3240  -15.0587    0.3495  -15.0174    0.3401  -15.0299    0.3122  -15.0004    0.3561  -15.0106    0.3686   -0.0000  -49.5164
  7.170  -14.9518    0.3212  -14.9891    0.3465  -14.9481    0.3373  -14.9605    0.3094  -14.9312    0.3531  -14.9413    0.3655   -0.0000  -49.5164
  7.180  -14.8829    0.3184  -14.9200    0.3435  -14.8793    0.3344  -14.8917    0.3066  -14.8625    0.3502  -14.8725    0.3624   -0.0000  -49.5164
  7.190  -14.8146    0.3157  -14.8515    0.3406  -14.8110    0.3316  -14.8234    0.3039  -14.7944    0.3473  -14.8043    0.3593   -0.0000  -49.5164
  7.200  -14.7468    0.3130  -14.7834    0.3378  -14.7432    0.3289  -14.7556    0.3012  -14.7268    0.3444  -14.7366    0.3564   -0.0000  -49.5164
  7.210  -14.6796    0.3104  -14.7160    0.3349  -14.6760    0.3262  -14.6883    0.2986  -14.6597    0.3416  -14.6694    0.3534   -0.0000  -49.5164
  7.220  -14.6128    0.3078  -14.6490    0.3322  -14.6093    0.3235  -14.6216    0.2959  -14.5931    0.3389  -14.6027    0.3505   -0.0000  -49.5164
  7.230  -14.5465    0.3052  -14.5825    0.3294  -14.5431    0.3209  -14.5553    0.2934  -14.5271    0.3361  -14.5365    0.3476   -0.0000  -49.5164
  7.240  -14.4808    0.3027  -14.5166    0.3267  -14.4774    0.3183  -14.4896    0.2908  -14.4615    0.3334  -14.4709    0.3448   -0.0000  -49.5164
  7.250  -14.4155    0.3002  -14.4511    0.3241  -14.4122    0.3158  -14.4244    0.2884  -14.3964    0.3308  -14.4057    0.3421   -0.0000  -49.5164
  7.260  -14.3508    0.2977  -14.3862    0.3215  -14.3475    0.3133  -14.3596    0.2859  -14.3318    0.3282  -14.3410    0.3393   -0.0000  -49.5164
  7.270  -14.2865    0.2953  -14.3217    0.3189  -14.2832    0.3108  -14.2953    0.2835  -14.2677    0.3256  -14.2768    0.3366   -0.0000  -49.5164
  7.280  -14.2227    0.2929  -14.2577    0.3163  -14.2195    0.3084  -14.2315    0.2811  -14.2041    0.3231  -14.2130    0.3340   -0.0000  -49.5164
  7.290  -14.1593    0.2906  -14.1942    0.3138  -14.1562    0.3059  -14.1682    0.2787  -14.1409    0.3206  -14.1498    0.3313   -0.0000  -49.5164
  7.300  -14.0964    0.2882  -14.1311    0.3113  -14.0933    0.3036  -14.1053    0.2764  -14.0782    0.3181  -14.0870    0.3288   -0.0000  -49.5164
  7.310  -14.0340    0.2859  -14.0685    0.3089  -14.0310    0.3012  -14.0429    0.2741  -14.0159    0.3157  -14.0246    0.3262   -0.0000  -49.5164
  7.320  -13.9720    0.2837  -14.0064    0.3065  -13.9690    0.2989  -13.9809    0.2719  -13.9541    0.3133  -13.9627    0.3237   -0.0000  -49.5164
  7.330  -13.9105    0.2815  -13.9447    0.3041  -13.9075    0.2966  -13.9194    0.2696  -13.8927    0.3109  -13.9013    0.3212   -0.0000  -49.5164
  7.340  -13.8494    0.2793  -13.8834    0.3018  -13.8465    0.2944  -13.8583    0.2674  -13.8318    0.3086  -13.8402    0.3188   -0.0000  -49.5164
  7.350  -13.7888    0.2771  -13.8226    0.2995  -13.7859    0.2922  -13.7977    0.2653  -13.7713    0.3063  -13.7797    0.3164   -0.0000  -49.5164
  7.360  -13.7285    0.2750  -13.7623    0.2972  -13.7257    0.2900  -13.7374    0.2631  -13.7113    0.3040  -13.7195    0.3140   -0.0000  -49.5164
  7.370  -13.6687    0.2729  -13.7023    0.2949  -13.6659    0.2878  -13.6776    0.2610  -13.6516    0.3018  -13.6598    0.3117   -0.0000  -49.5164
  7.380  -13.6094    0.2708  -13.6428    0.2927  -13.6066    0.2857  -13.6183    0.2589  -13.5924    0.2996  -13.6005    0.3093   -0.0000  -49.5164
  7.390  -13.5504    0.2688  -13.5837    0.2905  -13.5476    0.2836  -13.5593    0.2569  -13.5336    0.2974  -13.5416    0.3071   -0.0000  -49.5164
  7.400  -13.4918    0.2667  -13.5250    0.2884  -13.4891    0.2815  -13.5007    0.2549  -13.4752    0.2952  -13.4831    0.3048   -0.0000  -49.5164
  7.410  -13.4337    0.2648  -13.4667    0.2863  -13.4310    0.2795  -13.4426    0.2529  -13.4171    0.2931  -13.4250    0.3026   -0.0000  -49.5164
  7.420  -13.3759    0.2628  -13.4088    0.2842  -13.3733    0.2774  -13.3848    0.2509  -13.3595    0.2910  -13.3673    0.3004   -0.0000  -49.5164
  7.430  -13.3185    0.2609  -13.3514    0.2821  -13.3159    0.2755  -13.3275    0.2489  -13.3023    0.2890  -13.3100    0.2983   -0.0000  -49.5164
  7.440  -13.2616    0.2589  -13.2943    0.2800  -13.2590    0.2735  -13.2705    0.2470  -13.2455    0.2869  -13.2531    0.2961   -0.0000  -49.5164
  7.450  -13.2050    0.2571  -13.2376    0.2780  -13.2024    0.2715  -13.2139    0.2451  -13.1891    0.2849  -13.1966    0.2940   -0.0000  -49.5164
  7.460  -13.1488    0.2552  -13.1813    0.2760  -13.1463    0.2696  -13.1577    0.2433  -13.1330    0.2829  -13.1405    0.2919   -0.0000  -49.5164
  7.470  -13.0929    0.2534  -13.1253    0.2740  -13.0905    0.2677  -13.1019    0.2414  -13.0773    0.2810  -13.0847    0.2899   -0.0000  -49.5164
  7.480  -13.0375    0.2515  -13.0698    0.2721  -13.0350    0.2659  -13.0464    0.2396  -13.0220    0.2790  -13.0293    0.2879   -0.0000  -49.5164
  7.490  -12.9824    0.2498  -13.0146    0.2702  -12.9800    0.2640  -12.9913    0.2378  -12.9670    0.2771  -12.9743    0.2859   -0.0000  -49.5164
  7.500  -12.9276    0.2480  -12.9597    0.2683  -12.9253    0.2622  -12.9366    0.2360  -12.9124    0.2752  -12.9196    0.2839   -0.0000  -49.5164
  7.510  -12.8732    0.2463  -12.9053    0.2664  -12.8709    0.2604  -12.8822    0.2342  -12.8582    0.2734  -12.8653    0.2820   -0.0000  -49.5164
  7.520  -12.8192    0.2445  -12.8512    0.2646  -12.8169    0.2586  -12.8282    0.2325  -12.8043    0.2715  -12.8114    0.2801   -0.0000  -49.5164
  7.530  -12.7655    0.2428  -12.7974    0.2627  -12.7633    0.2569  -12.7745    0.2308  -12.7508    0.2697  -12.7578    0.2782   -0.0000  -49.5164
  7.540  -12.7122    0.2412  -12.7440    0.2609  -12.7100    0.2551  -12.7212    0.2291  -12.6976    0.2679  -12.7045    0.2763   -0.0000  -49.5164
  7.550  -12.6592    0.2395  -12.6910    0.2591  -12.6570    0.2534  -12.6682    0.2274  -12.6447    0.2662  -12.6516    0.2744   -0.0000  -49.5164
  7.560  -12.6066    0.2379  -12.6382    0.2574  -12.6044    0.2517  -12.6156    0.2257  -12.5922    0.2644  -12.5990    0.2726   -0.0000  -49.5164
  7.570  -12.5543    0.2363  -12.5859    0.2556  -12.5521    0.2501  -12.5632    0.2241  -12.5400    0.2627  -12.5468    0.2708   -0.0000  -49.5164
  7.580  -12.5023    0.2347  -12.5338    0.2539  -12.5001    0.2484  -12.5113    0.2225  -12.4882    0.2610  -12.4949    0.2691   -0.0000  -49.5164
  7.590  -12.4506    0.2331  -12.4821    0.2522  -12.4485    0.2468  -12.4596    0.2209  -12.4367    0.2593  -12.4433    0.2673   -0.0000  -49.5164
  7.600  -12.3993    0.2315  -12.4307    0.2506  -12.3972    0.2452  -12.4083    0.2193  -12.3855    0.2577  -12.3921    0.2656   -0.0000  -49.5164
  7.610  -12.3483    0.2300  -12.3797    0.2489  -12.3462    0.2436  -12.3573    0.2178  -12.3346    0.2560  -12.3411    0.2639   -0.0000  -49.5164
  7.620  -12.2976    0.2285  -12.3289    0.2473  -12.2955    0.2420  -12.3066    0.2162  -12.2840    0.2544  -12.2905    0.2622   -0.0000  -49.5164
  7.630  -12.2472    0.2270  -12.2785    0.2457  -12.2452    0.2405  -12.2562    0.2147  -12.2338    0.2528  -12.2402    0.2605   -0.0000  -49.5164
  7.640  -12.1971    0.2255  -12.2284    0.2441  -12.1951    0.2389  -12.2061    0.2132  -12.1838    0.2512  -12.1902    0.2589   -0.0000  -49.5164
  7.650  -12.1473    0.2241  -12.1786    0.2425  -12.1454    0.2374  -12.1563    0.2117  -12.1342    0.2497  -12.1405    0.2572   -0.0000  -49.5164
  7.660  -12.0979    0.2226  -12.1291    0.2409  -12.0959    0.2359  -12.1069    0.2102  -12.0848    0.2482  -12.0911    0.2556   -0.0000  -49.5164
  7.670  -12.0487    0.2212  -12.0799    0.2394  -12.0468    0.2344  -12.0577    0.2088  -12.0358    0.2466  -12.0420    0.2540   -0.0000  -49.5164
  7.680  -11.9998    0.2198  -12.0310    0.2379  -11.9979    0.2330  -12.0088    0.2073  -11.9870    0.2451  -11.9932    0.2525   -0.0000  -49.5164
  7.690  -11.9512    0.2184  -11.9824    0.2364  -11.9494    0.2315  -11.9603    0.2059  -11.9386    0.2437  -11.9447    0.2509   -0.0000  -49.5164
  7.700  -11.9029    0.2170  -11.9341    0.2349  -11.9011    0.2301  -11.9120    0.2045  -11.8904    0.2422  -11.8965    0.2494   -0.0000  -49.5164
  7.710  -11.8549    0.2157  -11.8861    0.2334  -11.8531    0.2287  -11.8640    0.2031  -11.8425    0.2408  -11.8485    0.2479   -0.0000  -49.5164
  7.720  -11.8072    0.2143  -11.8383    0.2320  -11.8054    0.2273  -11.8162    0.2017  -11.7949    0.2393  -11.8009    0.2464   -0.0000  -49.5164
  7.730  -11.7597    0.2130  -11.7909    0.2305  -11.7580    0.2259  -11.7688    0.2004  -11.7476    0.2379  -11.7535    0.2449   -0.0000  -49.5164
  7.740  -11.7125    0.2117  -11.7437    0.2291  -11.7108    0.2246  -11.7216    0.1990  -11.7006    0.2365  -11.7064    0.2435   -0.0000  -49.5164
  7.750  -11.6656    0.2104  -11.6968    0.2277  -11.6639    0.2232  -11.6747    0.1977  -11.6538    0.2352  -11.6596    0.2421   -0.0000  -49.5164
  7.760  -11.6190    0.2092  -11.6502    0.2263  -11.6173    0.2219  -11.6281    0.1964  -11.6073    0.2338  -11.6130    0.2406   -0.0000  -49.5164
  7.770  -11.5727    0.2079  -11.6038    0.2250  -11.5710    0.2206  -11.5818    0.1951  -11.5611    0.2325  -11.5668    0.2393   -0.0000  -49.5164
  7.780  -11.5266    0.2067  -11.5578    0.2236  -11.5249    0.2193  -11.5357    0.1938  -11.5151    0.2311  -11.5207    0.2379   -0.0000  -49.5164
  7.790  -11.4807    0.2054  -11.5119    0.2223  -11.4791    0.2180  -11.4898    0.1925  -11.4694    0.2298  -11.4750    0.2365   -0.0000  -49.5164
  7.800  -11.4351    0.2042  -11.4664    0.2210  -11.4335    0.2167  -11.4443    0.1913  -11.4239    0.2285  -11.4295    0.2352   -0.0000  -49.5164
  7.810  -11.3898    0.2030  -11.4211    0.2197  -11.3882    0.2155  -11.3990    0.1900  -11.3787    0.2273  -11.3843    0.2338   -0.0000  -49.5164
  7.820  -11.3447    0.2019  -11.3761    0.2184  -11.3432    0.2143  -11.3539    0.1888  -11.3338    0.2260  -11.3393    0.2325   -0.0000  -49.5164
  7.830  -11.2999    0.2007  -11.3313    0.2171  -11.2983    0.2130  -11.3091    0.1876  -11.2891    0.2248  -11.2945    0.2312   -0.0000  -49.5164
  7.840  -11.2553    0.1995  -11.2867    0.2158  -11.2538    0.2118  -11.2645    0.1864  -11.2446    0.2235  -11.2500    0.2299   -0.0000  -49.5164
  7.850  -11.2110    0.1984  -11.2425    0.2146  -11.2095    0.2106  -11.2202    0.1852  -11.2004    0.2223  -11.2058    0.2287   -0.0000  -49.5164
  7.860  -11.1669    0.1973  -11.1984    0.2134  -11.1654    0.2095  -11.1761    0.1840  -11.1565    0.2211  -11.1618    0.2274   -0.0000  -49.5164
  7.870  -11.1231    0.1962  -11.1546    0.2121  -11.1216    0.2083  -11.1323    0.1828  -11.1128    0.2200  -11.1180    0.2262   -0.0000  -49.5164
  7.880  -11.0795    0.1951  -11.1111    0.2109  -11.0780    0.2071  -11.0887    0.1817  -11.0693    0.2188  -11.0745    0.2250   -0.0000  -49.5164
  7.890  -11.0361    0.1940  -11.0678    0.2098  -11.0346    0.2060  -11.0453    0.1805  -11.0260    0.2176  -11.0312    0.2238   -0.0000  -49.5164
  7.900  -10.9929    0.1929  -11.0247    0.2086  -10.9915    0.2049  -11.0022    0.1794  -10.9830    0.2165  -10.9882    0.2226   -0.0000  -49.5164
  7.910  -10.9500    0.1919  -10.9819    0.2074  -10.9486    0.2038  -10.9593    0.1783  -10.9402    0.2154  -10.9453    0.2214   -0.0000  -49.5164
  7.920  -10.9073    0.1908  -10.9392    0.2063  -10.9059    0.2027  -10.9166    0.1772  -10.8977    0.2143  -10.9027    0.2203   -0.0000  -49.5164
  7.930  -10.8649    0.1898  -10.8969    0.2051  -10.8635    0.2016  -10.8742    0.1761  -10.8553    0.2132  -10.8604    0.2192   -0.0000  -49.5164
  7.940  -10.8226    0.1888  -10.8547    0.2040  -10.8212    0.2005  -10.8319    0.1750  -10.8132    0.2121  -10.8182    0.2180   -0.0000  -49.5164
  7.950  -10.7806    0.1878  -10.8128    0.2029  -10.7792    0.1995  -10.7899    0.1739  -10.7713    0.2111  -10.7763    0.2169   -0.0000  -49.5164
  7.960  -10.7388    0.1868  -10.7711    0.2018  -10.7374    0.1984  -10.7481    0.1728  -10.7296    0.2100  -10.7345    0.2158   -0.0000  -49.5164
  7.970  -10.6972    0.1858  -10.7296    0.2007  -10.6958    0.1974  -10.7066    0.1718  -10.6882    0.2090  -10.6930    0.2148   -0.0000  -49.5164
  7.980  -10.6558    0.1848  -10.6883    0.1997  -10.6545    0.1964  -10.6652    0.1707  -10.6469    0.2080  -10.6518    0.2137   -0.0000  -49.5164
  7.990  -10.6146    0.1839  -10.6472    0.1986  -10.6133    0.1954  -10.6240    0.1697  -10.6059    0.2070  -10.6107    0.2126   -0.0000  -49.5164
  8.000  -10.5736    0.1830  -10.6064    0.1976  -10.5723    0.1944  -10.5831    0.1687  -10.5650    0.2060  -10.5698    0.2116   -0.0000  -49.5164
  8.010  -10.5329    0.1820  -10.5657    0.1965  -10.5316    0.1934  -10.5423    0.1676  -10.5244    0.2050  -10.5291    0.2106   -0.0000  -49.5164
  8.020  -10.4923    0.1811  -10.5253    0.1955  -10.4910    0.1924  -10.5018    0.1666  -10.4839    0.2040  -10.4887    0.2096   -0.0000  -49.5164
  8.030  -10.4519    0.1802  -10.4851    0.1945  -10.4507    0.1915  -10.4615    0.1656  -10.4437    0.2031  -10.4484    0.2086   -0.0000  -49.5164
  8.040  -10.4118    0.1793  -10.4450    0.1935  -10.4105    0.1905  -10.4213    0.1647  -10.4037    0.2021  -10.4083    0.2076   -0.0000  -49.5164
  8.050  -10.3718    0.1784  -10.4052    0.1925  -10.3706    0.1896  -10.3814    0.1637  -10.3638    0.2012  -10.3684    0.2066   -0.0000  -49.5164
  8.060  -10.3320    0.1776  -10.3656    0.1916  -10.3308    0.1887  -10.3416    0.1627  -10.3242    0.2003  -10.3288    0.2057   -0.0000  -49.5164
  8.070  -10.2924    0.1767  -10.3261    0.1906  -10.2912    0.1878  -10.3020    0.1618  -10.2847    0.1994  -10.2893    0.2048   -0.0000  -49.5164
  8.080  -10.2530    0.1759  -10.2869    0.1897  -10.2518    0.1869  -10.2626    0.1608  -10.2455    0.1985  -10.2500    0.2038   -0.0000  -49.5164
  8.090  -10.2138    0.1751  -10.2478    0.1887  -10.2126    0.1860  -10.2234    0.1599  -10.2064    0.1977  -10.2109    0.2029   -0.0000  -49.5164
  8.100  -10.1747    0.1742  -10.2090    0.1878  -10.1736    0.1851  -10.1844    0.1589  -10.1675    0.1968  -10.1719    0.2020   -0.0000  -49.5164
  8.110  -10.1359    0.1734  -10.1703    0.1869  -10.1347    0.1842  -10.1456    0.1580  -10.1288    0.1960  -10.1332    0.2012   -0.0000  -49.5164
  8.120  -10.0972    0.1726  -10.1318    0.1860  -10.0960    0.1834  -10.1070    0.1571  -10.0902    0.1951  -10.0946    0.2003   -0.0000  -49.5164
  8.130  -10.0587    0.1719  -10.0935    0.1851  -10.0575    0.1826  -10.0685    0.1562  -10.0519    0.1943  -10.0562    0.1994   -0.0000  -49.5164
  8.140  -10.0204    0.1711  -10.0554    0.1842  -10.0192    0.1817  -10.0302    0.1553  -10.0137    0.1935  -10.0180    0.1986   -0.0000  -49.5164
  8.150   -9.9822    0.1703  -10.0174    0.1833   -9.9811    0.1809   -9.9921    0.1544   -9.9757    0.1927   -9.9800    0.1978   -0.0000  -49.5164
  8.160   -9.9442    0.1696   -9.9797    0.1825   -9.9431    0.1801   -9.9541    0.1536   -9.9378    0.1920   -9.9421    0.1970   -0.0000  -49.5164
  8.170   -9.9064    0.1689   -9.9421    0.1816   -9.9053    0.1793   -9.9163    0.1527   -9.9001    0.1912   -9.9044    0.1962   -0.0000  -49.5164
  8.180   -9.8687    0.1681   -9.9046    0.1808   -9.8676    0.1786   -9.8787    0.1518   -9.8626    0.1905   -9.8668    0.1954   -0.0000  -49.5164
  8.190   -9.8312    0.1674   -9.8674    0.1800   -9.8301    0.1778   -9.8412    0.1510   -9.8253    0.1897   -9.8295    0.1946   -0.0000  -49.5164
  8.200   -9.7939    0.1667   -9.8303    0.1792   -9.7928    0.1770   -9.8039    0.1501   -9.7881    0.1890   -9.7923    0.1939   -0.0000  -49.5164
  8.210   -9.7567    0.1660   -9.7934    0.1784   -9.7556    0.1763   -9.7668    0.1493   -9.7511    0.1883   -9.7552    0.1931   -0.0000  -49.5164
  8.220   -9.7197    0.1654   -9.7566    0.1776   -9.7186    0.1756   -9.7298    0.1485   -9.7142    0.1876   -9.7183    0.1924   -0.0000  -49.5164
  8.230   -9.6828    0.1647   -9.7200    0.1768   -9.6817    0.1748   -9.6930    0.1476   -9.6775    0.1869   -9.6816    0.1917   -0.0000  -49.5164
  8.240   -9.6461    0.1641   -9.6836    0.1760   -9.6450    0.1741   -9.6563    0.1468   -9.6409    0.1863   -9.6450    0.1910   -0.0000  -49.5164
  8.250   -9.6095    0.1634   -9.6473    0.1753   -9.6085    0.1734   -9.6198    0.1460   -9.6045    0.1856   -9.6085    0.1903   -0.0000  -49.5164
  8.260   -9.5731    0.1628   -9.6112    0.1745   -9.5720    0.1728   -9.5834    0.1452   -9.5683    0.1850   -9.5723    0.1897   -0.0000  -49.5164
  8.270   -9.5368    0.1622   -9.5752    0.1738   -9.5357    0.1721   -9.5472    0.1444   -9.5321    0.1844   -9.5361    0.1890   -0.0000  -49.5164
  8.280   -9.5006    0.1616   -9.5394    0.1731   -9.4996    0.1714   -9.5111    0.1436   -9.4962    0.1838   -9.5001    0.1884   -0.0000  -49.5164
  8.290   -9.4646    0.1610   -9.5037    0.1724   -9.4636    0.1708   -9.4751    0.1429   -9.4603    0.1832   -9.4643    0.1878   -0.0000  -49.5164
  8.300   -9.4287    0.1604   -9.4682    0.1717   -9.4277    0.1701   -9.4393    0.1421   -9.4246    0.1826   -9.4285    0.1872   -0.0000  -49.5164
  8.310   -9.3930    0.1599   -9.4328    0.1710   -9.3920    0.1695   -9.4036    0.1413   -9.3891    0.1821   -9.3930    0.1866   -0.0000  -49.5164
  8.320   -9.3574    0.1593   -9.3976    0.1703   -9.3564    0.1689   -9.3681    0.1406   -9.3536    0.1815   -9.3575    0.1860   -0.0000  -49.5164
  8.330   -9.3219    0.1588   -9.3625    0.1696   -9.3209    0.1683   -9.3326    0.1398   -9.3184    0.1810   -9.3222    0.1854   -0.0000  -49.5164
  8.340   -9.2866    0.1583   -9.3275    0.1690   -9.2856    0.1677   -9.2973    0.1391   -9.2832    0.1805   -9.2870    0.1849   -0.0000  -49.5164
  8.350   -9.2513    0.1578   -9.2927    0.1684   -9.2504    0.1672   -9.2622    0.1383   -9.2482    0.1800   -9.2519    0.1844   -0.0000  -49.5164
  8.360   -9.2162    0.1573   -9.2580    0.1677   -9.2153    0.1666   -9.2271    0.1376   -9.2132    0.1795   -9.2170    0.1839   -0.0000  -49.5164
  8.370   -9.1812    0.1568   -9.2235    0.1671   -9.1803    0.1661   -9.1922    0.1369   -9.1784    0.1790   -9.1822    0.1834   -0.0000  -49.5164
  8.380   -9.1464    0.1563   -9.1890    0.1665   -9.1454    0.1655   -9.1574    0.1362   -9.1438    0.1786   -9.1475    0.1829   -0.0000  -49.5164
  8.390   -9.1116    0.1559   -9.1548    0.1659   -9.1106    0.1650   -9.1227    0.1355   -9.1092    0.1782   -9.1129    0.1824   -0.0000  -49.5164
  8.400   -9.0770    0.1554   -9.1206    0.1653   -9.0760    0.1645   -9.0881    0.1348   -9.0748    0.1777   -9.0784    0.1820   -0.0000  -49.5164
  8.410   -9.0424    0.1550   -9.0865    0.1647   -9.0414    0.1640   -9.0537    0.1341   -9.0404    0.1773   -9.0441    0.1816   -0.0000  -49.5164
  8.420   -9.0080    0.1546   -9.0526    0.1642   -9.0070    0.1635   -9.0193    0.1334   -9.0062    0.1770   -9.0098    0.1812   -0.0000  -49.5164
  8.430   -8.9736    0.1542   -9.0188    0.1636   -8.9727    0.1631   -8.9851    0.1327   -8.9721    0.1766   -8.9757    0.1808   -0.0000  -49.5164
  8.440   -8.9394    0.1538   -8.9851    0.1631   -8.9384    0.1626   -8.9509    0.1320   -8.9381    0.1763   -8.9417    0.1804   -0.0000  -49.5164
  8.450   -8.9053    0.1535   -8.9515    0.1626   -8.9043    0.1622   -8.9168    0.1314   -8.9042    0.1760   -8.9077    0.1801   -0.0000  -49.5164
  8.460   -8.8712    0.1531   -8.9180    0.1621   -8.8702    0.1618   -8.8829    0.1307   -8.8704    0.1757   -8.8739    0.1797   -0.0000  -49.5164
  8.470   -8.8373    0.1528   -8.8847    0.1616   -8.8363    0.1614   -8.8490    0.1300   -8.8367    0.1754   -8.8402    0.1794   -0.0000  -49.5164
  8.480   -8.8034    0.1525   -8.8514    0.1611   -8.8024    0.1610   -8.8152    0.1294   -8.8030    0.1751   -8.8065    0.1791   -0.0000  -49.5164
  8.490   -8.7696    0.1522   -8.8183    0.1606   -8.7686    0.1606   -8.7815    0.1288   -8.7695    0.1749   -8.7730    0.1789   -0.0000  -49.5164
  8.500   -8.7359    0.1519   -8.7852    0.1601   -8.7349    0.1602   -8.7479    0.1281   -8.7360    0.1747   -8.7395    0.1786   -0.0000  -49.5164
  8.510   -8.7023    0.1517   -8.7523    0.1597   -8.7013    0.1599   -8.7144    0.1275   -8.7027    0.1745   -8.7061    0.1784   -0.0000  -49.5164
  8.520   -8.6687    0.1514   -8.7194    0.1593   -8.6677    0.1596   -8.6809    0.1269   -8.6694    0.1743   -8.6728    0.1782   -0.0000  -49.5164
  8.530   -8.6352    0.1512   -8.6867    0.1588   -8.6342    0.1593   -8.6476    0.1262   -8.6362    0.1741   -8.6396    0.1781   -0.0000  -49.5164
  8.540   -8.6018    0.1510   -8.6540    0.1584   -8.6008    0.1590   -8.6143    0.1256   -8.6030    0.1740   -8.6064    0.1779   -0.0000  -49.5164
  8.550   -8.5684    0.1509   -8.6214    0.1581   -8.5674    0.1587   -8.5810    0.1250   -8.5700    0.1739   -8.5733    0.1778   -0.0000  -49.5164
  8.560   -8.5351    0.1507   -8.5889    0.1577   -8.5341    0.1585   -8.5478    0.1244   -8.5370    0.1738   -8.5403    0.1777   -0.0000  -49.5164
  8.570   -8.5019    0.1506   -8.5565    0.1573   -8.5009    0.1583   -8.5147    0.1238   -8.5040    0.1738   -8.5074    0.1776   -0.0000  -49.5164
  8.580   -8.4687    0.1505   -8.5242    0.1570   -8.4677    0.1581   -8.4816    0.1232   -8.4711    0.1738   -8.4745    0.1776   -0.0000  -49.5164
  8.590   -8.4355    0.1504   -8.4919    0.1567   -8.4345    0.1579   -8.4486    0.1227   -8.4383    0.1738   -8.4416    0.1776   -0.0000  -49.5164
  8.600   -8.4024    0.1503   -8.4598    0.1563   -8.4014    0.1577   -8.4156    0.1221   -8.4056    0.1738   -8.4088    0.1776   -0.0000  -49.5164
  8.610   -8.3694    0.1503   -8.4277    0.1560   -8.3683    0.1576   -8.3827    0.1215   -8.3728    0.1739   -8.3761    0.1776   -0.0000  -49.5164
  8.620   -8.3363    0.1503   -8.3956    0.1558   -8.3352    0.1575   -8.3498    0.1210   -8.3401    0.1740   -8.3434    0.1777   -0.0000  -49.5164
  8.630   -8.3033    0.1503   -8.3636    0.1555   -8.3022    0.1574   -8.3169    0.1204   -8.3075    0.1741   -8.3107    0.1778   -0.0000  -49.5164
  8.640   -8.2703    0.1503   -8.3317    0.1553   -8.2692    0.1573   -8.2841    0.1198   -8.2749    0.1743   -8.2781    0.1780   -0.0000  -49.5164
  8.650   -8.2374    0.1504   -8.2999    0.1550   -8.2362    0.1573   -8.2513    0.1193   -8.2423    0.1745   -8.2455    0.1781   -0.0000  -49.5164
  8.660   -8.2044    0.1505   -8.2681    0.1548   -8.2032    0.1572   -8.2185    0.1188   -8.2097    0.1747   -8.2129    0.1784   -0.0000  -49.5164
  8.670   -8.1715    0.1507   -8.2363    0.1547   -8.1703    0.1572   -8.1857    0.1182   -8.1772    0.1750   -8.1804    0.1786   -0.0000  -49.5164
  8.680   -8.1385    0.1508   -8.2046    0.1545   -8.1373    0.1573   -8.1529    0.1177   -8.1447    0.1754   -8.1478    0.1789   -0.0000  -49.5164
  8.690   -8.1056    0.1510   -8.1729    0.1544   -8.1043    0.1574   -8.1201    0.1172   -8.1122    0.1757   -8.1153    0.1793   -0.0000  -49.5164
  8.700   -8.0726    0.1513   -8.1413    0.1542   -8.0713    0.1575   -8.0873    0.1167   -8.0797    0.1761   -8.0828    0.1797   -0.0000  -49.5164
  8.710   -8.0396    0.1516   -8.1097    0.1541   -8.0383    0.1576   -8.0545    0.1162   -8.0471    0.1766   -8.0502    0.1801   -0.0000  -49.5164
  8.720   -8.0066    0.1519   -8.0781    0.1541   -8.0053    0.1578   -8.0217    0.1157   -8.0146    0.1771   -8.0177    0.1806   -0.0000  -49.5164
  8.730   -7.9735    0.1523   -8.0466    0.1540   -7.9722    0.1580   -7.9889    0.1152   -7.9821    0.1776   -7.9852    0.1811   -0.0000  -49.5164
  8.740   -7.9405    0.1527   -8.0151    0.1540   -7.9391    0.1582   -7.9560    0.1147   -7.9495    0.1782   -7.9526    0.1817   -0.0000  -49.5164
  8.750   -7.9073    0.1531   -7.9836    0.1540   -7.9059    0.1585   -7.9230    0.1143   -7.9169    0.1789   -7.9200    0.1823   -0.0000  -49.5164
  8.760   -7.8742    0.1536   -7.9521    0.1540   -7.8727    0.1589   -7.8901    0.1138   -7.8843    0.1796   -7.8873    0.1830   -0.0000  -49.5164
  8.770   -7.8409    0.1542   -7.9206    0.1541   -7.8394    0.1592   -7.8570    0.1133   -7.8517    0.1804   -7.8547    0.1838   -0.0000  -49.5164
  8.780   -7.8076    0.1548   -7.8891    0.1542   -7.8060    0.1596   -7.8239    0.1129   -7.8189    0.1813   -7.8219    0.1846   -0.0000  -49.5164
  8.790   -7.7742    0.1555   -7.8576    0.1543   -7.7725    0.1601   -7.7907    0.1124   -7.7862    0.1822   -7.7891    0.1855   -0.0000  -49.5164
  8.800   -7.7407    0.1562   -7.8261    0.1544   -7.7389    0.1606   -7.7575    0.1120   -7.7533    0.1832   -7.7563    0.1865   -0.0000  -49.5164
  8.810   -7.7070    0.1570   -7.7946    0.1546   -7.7053    0.1612   -7.7241    0.1116   -7.7204    0.1843   -7.7233    0.1876   -0.0000  -49.5164
  8.820   -7.6733    0.1579   -7.7631    0.1548   -7.6715    0.1618   -7.6906    0.1112   -7.6874    0.1854   -7.6903    0.1887   -0.0000  -49.5164
  8.830   -7.6395    0.1588   -7.7315    0.1551   -7.6375    0.1625   -7.6570    0.1108   -7.6543    0.1866   -7.6572    0.1899   -0.0001  -49.5164
  8.840   -7.6055    0.1599   -7.6999    0.1554   -7.6034    0.1633   -7.6233    0.1104   -7.6211    0.1880   -7.6240    0.1912   -0.0001  -49.5164
  8.850   -7.5713    0.1610   -7.6683    0.1557   -7.5692    0.1641   -7.5894    0.1100   -7.5877    0.1894   -7.5906    0.1926   -0.0002  -49.5164
  8.860   -7.5370    0.1621   -7.6366    0.1561   -7.5348    0.1650   -7.5554    0.1096   -7.5543    0.1909   -7.5571    0.1942   -0.0005  -49.5164
  8.870   -7.5025    0.1634   -7.6048    0.1565   -7.5002    0.1660   -7.5211    0.1093   -7.5206    0.1926   -7.5235    0.1958   -0.0009  -49.5164
  8.880   -7.4678    0.1648   -7.5730    0.1570   -7.4653    0.1671   -7.4867    0.1090   -7.4869    0.1943   -7.4897    0.1975   -0.0018  -49.5164
  8.890   -7.4328    0.1663   -7.5411    0.1575   -7.4303    0.1682   -7.4521    0.1086   -7.4529    0.1962   -7.4558    0.1994   -0.0035  -49.5164
  8.900   -7.3977    0.1679   -7.5091    0.1580   -7.3950    0.1695   -7.4172    0.1083   -7.4188    0.1982   -7.4216    0.2014   -0.0067  -49.5164
  8.910   -7.3623    0.1697   -7.4770    0.1587   -7.3594    0.1708   -7.3821    0.1080   -7.3845    0.2004   -7.3873    0.2035   -0.0125  -49.5164
  8.920   -7.3266    0.1715   -7.4448    0.1593   -7.3235    0.1723   -7.3467    0.1077   -7.3499    0.2027   -7.3527    0.2058   -0.0228  -49.5164
  8.930   -7.2906    0.1735   -7.4125    0.1601   -7.2873    0.1738   -7.3110    0.1075   -7.3151    0.2052   -7.3179    0.2083   -0.0407  -49.5164
  8.940   -7.2542    0.1757   -7.3801    0.1609   -7.2508    0.1755   -7.2750    0.1072   -7.2801    0.2078   -7.2829    0.2109   -0.0713  -49.5164
  8.950   -7.2176    0.1780   -7.3475    0.1618   -7.2139    0.1774   -7.2387    0.1070   -7.2447    0.2107   -7.2475    0.2138   -0.1225  -49.5165
  8.960   -7.1805    0.1805   -7.3148    0.1627   -7.1766    0.1793   -7.2020    0.1068   -7.2091    0.2137   -7.2119    0.2168   -0.2064  -49.5165
  8.970   -7.1431    0.1832   -7.2819    0.1637   -7.1388    0.1815   -7.1648    0.1066   -7.1731    0.2170   -7.1759    0.2201   -0.3412  -49.5167
  8.980   -7.1052    0.1862   -7.2488    0.1648   -7.1006    0.1838   -7.1272    0.1065   -7.1368    0.2205   -7.1395    0.2236   -0.5532  -49.5169
  8.990   -7.0668    0.1893   -7.2155    0.1660   -7.0619    0.1862   -7.0892    0.1063   -7.1001    0.2243   -7.1028    0.2273   -0.8800  -49.5172
  9.000   -7.0279    0.1927   -7.1820    0.1673   -7.0227    0.1889   -7.0506    0.1063   -7.0630    0.2284   -7.0657    0.2314   -1.3742  -49.5177
  9.010   -6.9884    0.1964   -7.1483    0.1687   -6.9828    0.1918   -7.0115    0.1062   -7.0254    0.2327   -7.0281    0.2357   -2.1079  -49.5185
  9.020   -6.9484    0.2004   -7.1144    0.1702   -6.9423    0.1950   -6.9717    0.1062   -6.9874    0.2374   -6.9901    0.2404   -3.1779  -49.5196
  9.030   -6.9077    0.2047   -7.0801    0.1718   -6.9011    0.1984   -6.9313    0.1062   -6.9488    0.2425   -6.9515    0.2455   -4.7136  -49.5214
  9.040   -6.8663    0.2093   -7.0456    0.1735   -6.8591    0.2021   -6.8901    0.1063   -6.9097    0.2480   -6.9124    0.2509   -6.8853  -49.5239
  9.050   -6.8242    0.2144   -7.0108    0.1754   -6.8164    0.2061   -6.8482    0.1064   -6.8700    0.2539   -6.8727    0.2568   -9.9168  -49.5275
  9.060   -6.7812    0.2199   -6.9756    0.1774   -6.7727    0.2104   -6.8054    0.1066   -6.8297    0.2603   -6.8324    0.2632  -14.0998  -49.5327
  9.070   -6.7374    0.2259   -6.9401    0.1796   -6.7280    0.2151   -6.7617    0.1068   -6.7886    0.2672   -6.7913    0.2701  -19.8102  -49.5400
  9.080   -6.6926    0.2324   -6.9041    0.1819   -6.6823    0.2203   -6.7169    0.1071   -6.7468    0.2747   -6.7495    0.2776  -27.5246  -49.5501
  9.090   -6.6467    0.2395   -6.8678    0.1844   -6.6354    0.2259   -6.6710    0.1075   -6.7042    0.2828   -6.7069    0.2857  -37.8289  -49.5640
  9.100   -6.5997    0.2473   -6.8310    0.1871   -6.5873    0.2320   -6.6239    0.1080   -6.6608    0.2917   -6.6634    0.2945  -51.4112  -49.5829
  9.110   -6.5515    0.2559   -6.7937    0.1900   -6.5377    0.2387   -6.5755    0.1086   -6.6163    0.3014   -6.6190    0.3042  -69.0264  -49.6083
  9.120   -6.5020    0.2652   -6.7559    0.1931   -6.4867    0.2461   -6.5256    0.1094   -6.5709    0.3119   -6.5735    0.3147  -91.4224  -49.6419
  9.130   -6.4510    0.2755   -6.7176    0.1964   -6.4339    0.2541   -6.4740    0.1103   -6.5243    0.3235   -6.5269    0.3263 -119.2210  -49.6857
  9.140   -6.3984    0.2869   -6.6786    0.2001   -6.3793    0.2631   -6.4206    0.1113   -6.4765    0.3361   -6.4791    0.3389 -152.7606  -49.7418
  9.150   -6.3441    0.2994   -6.6389    0.2040   -6.3227    0.2729   -6.3652    0.1125   -6.4274    0.3500   -6.4300    0.3528 -191.9220  -49.8124
  9.160   -6.2880    0.3134   -6.5986    0.2082   -6.2638    0.2838   -6.3076    0.1140   -6.3770    0.3654   -6.3796    0.3682 -235.9756  -49.8991
  9.170   -6.2297    0.3288   -6.5575    0.2128   -6.2024    0.2959   -6.2475    0.1157   -6.3249    0.3823   -6.3275    0.3851 -283.4944  -50.0033
  9.180   -6.1692    0.3461   -6.5156    0.2178   -6.1382    0.3094   -6.1846    0.1178   -6.2713    0.4011   -6.2739    0.4039 -332.3773  -50.1254
  9.190   -6.1063    0.3654   -6.4729    0.2231   -6.0709    0.3245   -6.1185    0.1202   -6.2159    0.4220   -6.2184    0.4247 -380.0027  -50.2651
  9.200   -6.0407    0.3870   -6.4292    0.2289   -6.0000    0.3415   -6.0490    0.1231   -6.1585    0.4453   -6.1611    0.4480 -423.5035  -50.4207
  9.210   -5.9721    0.4113   -6.3844    0.2352   -5.9253    0.3607   -5.9754    0.1265   -6.0991    0.4713   -6.1016    0.4740 -460.1188  -50.5898
  9.220   -5.9002    0.4388   -6.3386    0.2420   -5.8460    0.3824   -5.8972    0.1306   -6.0374    0.5005   -6.0400    0.5032 -487.5514  -50.7690
  9.230   -5.8248    0.4700   -6.2916    0.2493   -5.7617    0.4071   -5.8138    0.1354   -5.9734    0.5335   -5.9759    0.5362 -504.2587  -50.9543
  9.240   -5.7455    0.5056   -6.2432    0.2572   -5.6716    0.4355   -5.7243    0.1413   -5.9068    0.5707   -5.9093    0.5734 -509.6219  -51.1416
  9.250   -5.6620    0.5463   -6.1934    0.2658   -5.5749    0.4681   -5.6278    0.1484   -5.8376    0.6131   -5.8401    0.6158 -503.9725  -51.3268
  9.260   -5.5739    0.5930   -6.1420    0.2752   -5.4706    0.5061   -5.5230    0.1572   -5.7655    0.6614   -5.7680    0.6641 -488.4967  -51.5063
  9.270   -5.4809    0.6470   -6.0889    0.2854   -5.3574    0.5505   -5.4086    0.1681   -5.6907    0.7169   -5.6932    0.7196 -465.0618  -51.6772
  9.280   -5.3825    0.7097   -6.0341    0.2964   -5.2339    0.6029   -5.2827    0.1818   -5.6131    0.7808   -5.6155    0.7835 -436.0198  -51.8374
  9.290   -5.2786    0.7829   -5.9773    0.3083   -5.0984    0.6654   -5.1431    0.1991   -5.5329    0.8547   -5.5353    0.8574 -404.0291  -51.9859
  9.300   -5.1690    0.8685   -5.9183    0.3211   -4.9486    0.7406   -4.9868    0.2214   -5.4506    0.9408   -5.4530    0.9435 -371.9143  -52.1226
  9.310   -5.0536    0.9694   -5.8570    0.3349   -4.7819    0.8324   -4.8102    0.2505   -5.3670    1.0413   -5.3693    1.0441 -342.5633  -52.2485
  9.320   -4.9328    1.0886   -5.7931    0.3494   -4.5951    0.9460   -4.6083    0.2891   -5.2834    1.1594   -5.2857    1.1621 -318.8534  -52.3656
  9.330   -4.8073    1.2301   -5.7263    0.3646   -4.3841    1.0889   -4.3747    0.3415   -5.2020    1.2984   -5.2042    1.3012 -303.6131  -52.4772
  9.340   -4.6785    1.3983   -5.6563    0.3800   -4.1444    1.2720   -4.1009    0.4141   -5.1262    1.4625   -5.1284    1.4654 -299.6865  -52.5873
  9.350   -4.5484    1.5990   -5.5825    0.3949   -3.8706    1.5119   -3.7753    0.5178   -5.0613    1.6565   -5.0634    1.6595 -310.2579  -52.7014
  9.360   -4.4200    1.8385   -5.5039    0.4081   -3.5580    1.8341   -3.3823    0.6703   -5.0149    1.8853   -5.0169    1.8885 -339.6486  -52.8262
  9.370   -4.2967    2.1256   -5.4189    0.4171   -3.2050    2.2795   -2.9018    0.9030   -4.9986    2.1543   -5.0004    2.1578 -394.6001  -52.9712
  9.380   -4.1828    2.4727   -5.3236    0.4185   -2.8217    2.9149   -2.3107    1.2728   -5.0295    2.4679   -5.0312    2.4719 -485.7267  -53.1497
  9.390   -4.0847    2.9029   -5.2099    0.4063   -2.4540    3.8495   -1.5934    1.8865   -5.1342    2.8288   -5.1359    2.8335 -629.1235  -53.3809
  9.400   -4.0225    3.4622   -5.0590    0.3743   -2.2512    5.2479   -0.7880    2.9425   -5.3575    3.2315   -5.3595    3.2373 -847.5809  -53.6924
  9.410   -4.0774    4.2310   -4.8294    0.3268   -2.6296    7.2660   -0.1434    4.7593   -5.7761    3.6368   -5.7791    3.6441 *********  -54.1197
  9.420   -4.5053    5.2445   -4.4569    0.3234   -4.4575    9.6072   -0.4722    7.5205   -6.4763    3.8909   -6.4818    3.8995 *********  -54.7021
  9.430   -5.6711    6.1259   -3.9588    0.5319   -8.2193   10.5786   -2.9532   10.1500   -7.3301    3.6792   -7.3394    3.6870 *********  -55.5287
  9.440   -7.2357    6.1265   -3.5764    1.0211  -11.7619    8.6012   -6.6763   10.4094   -7.8235    2.9946   -7.8353    2.9987 *********  -56.6912
  9.450   -8.3227    5.3919   -3.4368    1.5686  -12.9199    5.5048   -9.1078    8.6854   -7.8043    2.3536   -7.8154    2.3540 *********  -57.8332
  9.460   -8.8242    4.5673   -3.4131    2.0495  -12.5004    3.1966   -9.9739    6.8317   -7.5820    1.9792   -7.5916    1.9775 *********  -58.6689
  9.470   -9.0095    3.8932   -3.4166    2.5034  -11.6350    1.8179  -10.0896    5.4903   -7.3410    1.7989   -7.3492    1.7962 *********  -59.3730
  9.480   -9.0557    3.3734   -3.4429    2.9870  -10.7682    1.0384   -9.9648    4.6101   -7.1239    1.7390   -7.1308    1.7356 *********  -60.0611
  9.490   -9.0444    2.9704   -3.5267    3.5338  -10.0064    0.6126   -9.8097    4.0390   -6.9397    1.7683   -6.9454    1.7645 *********  -60.7534
  9.500   -9.0141    2.6505   -3.7239    4.1511   -9.3585    0.4076   -9.7037    3.6552   -6.8017    1.8752   -6.8064    1.8711 *********  -61.4412
  9.510   -8.9844    2.3855   -4.1021    4.8093   -8.8183    0.3553   -9.6737    3.3678   -6.7344    2.0477   -6.7380    2.0434 *********  -62.1072
  9.520   -8.9627    2.1506   -4.7205    5.4279   -8.3880    0.4161   -9.7172    3.1034   -6.7676    2.2586   -6.7701    2.2543 *********  -62.7368
  9.530   -8.9448    1.9248   -5.5862    5.8752   -8.0784    0.5529   -9.8035    2.8055   -6.9202    2.4573   -6.9217    2.4532 *********  -63.3224
  9.540   -8.9175    1.6970   -6.6101    6.0150   -7.8953    0.7185   -9.8793    2.4478   -7.1777    2.5798   -7.1781    2.5761 *********  -63.8634
  9.550   -8.8655    1.4698   -7.6183    5.7905   -7.8228    0.8620   -9.8906    2.0457   -7.4845    2.5800   -7.4841    2.5770 *********  -64.3624
  9.560   -8.7827    1.2561   -8.4394    5.2693   -7.8217    0.9493   -9.8125    1.6445   -7.7694    2.4574   -7.7684    2.4552 *********  -64.8220
  9.570   -8.6742    1.0685   -8.9910    4.5950   -7.8484    0.9743   -9.6569    1.2880   -7.9831    2.2512   -7.9818    2.2498 *********  -65.2435
  9.580   -8.5512    0.9125   -9.2868    3.9020   -7.8721    0.9510   -9.4544    0.9983   -8.1121    2.0102   -8.1108    2.0095 *********  -65.6268
  9.590   -8.4241    0.7870   -9.3894    3.2716   -7.8792    0.8989   -9.2350    0.7759   -8.1678    1.7710   -8.1666    1.7710 -936.0844  -65.9708
  9.600   -8.2999    0.6870   -9.3663    2.7350   -7.8674    0.8339   -9.0185    0.6103   -8.1699    1.5531   -8.1688    1.5535 -826.6091  -66.2746
  9.610   -8.1821    0.6073   -9.2699    2.2938   -7.8397    0.7662   -8.8154    0.4884   -8.1367    1.3632   -8.1358    1.3640 -716.2174  -66.5378
  9.620   -8.0721    0.5431   -9.1356    1.9368   -7.8003    0.7012   -8.6296    0.3987   -8.0820    1.2014   -8.0813    1.2025 -607.5539  -66.7611
  9.630   -7.9701    0.4907   -8.9849    1.6491   -7.7531    0.6413   -8.4616    0.3323   -8.0154    1.0649   -8.0149    1.0663 -503.6058  -66.9461
  9.640   -7.8756    0.4473   -8.8306    1.4170   -7.7011    0.5875   -8.3103    0.2825   -7.9429    0.9500   -7.9425    0.9515 -407.2253  -67.0958
  9.650   -7.7880    0.4110   -8.6794    1.2287   -7.6466    0.5397   -8.1740    0.2447   -7.8682    0.8530   -7.8680    0.8546 -320.7587  -67.2137
  9.660   -7.7065    0.3801   -8.5349    1.0748   -7.5910    0.4975   -8.0507    0.2156   -7.7937    0.7708   -7.7937    0.7725 -245.7915  -67.3040
  9.670   -7.6304    0.3536   -8.3987    0.9482   -7.5353    0.4603   -7.9387    0.1929   -7.7207    0.7008   -7.7208    0.7025 -183.0304  -67.3713
  9.680   -7.5592    0.3306   -8.2711    0.8430   -7.4803    0.4274   -7.8365    0.1749   -7.6500    0.6407   -7.6502    0.6425 -132.3254  -67.4199
  9.690   -7.4922    0.3105   -8.1521    0.7551   -7.4263    0.3983   -7.7427    0.1606   -7.5818    0.5888   -7.5821    0.5907  -92.8079  -67.4540
  9.700   -7.4291    0.2928   -8.0412    0.6809   -7.3736    0.3726   -7.6563    0.1489   -7.5164    0.5438   -7.5168    0.5457  -63.1049  -67.4772
  9.710   -7.3693    0.2770   -7.9379    0.6178   -7.3224    0.3497   -7.5762    0.1393   -7.4537    0.5045   -7.4541    0.5064  -41.5756  -67.4925
  9.720   -7.3126    0.2629   -7.8414    0.5638   -7.2726    0.3292   -7.5016    0.1314   -7.3936    0.4700   -7.3941    0.4719  -26.5286  -67.5022
  9.730   -7.2586    0.2503   -7.7513    0.5173   -7.2243    0.3109   -7.4319    0.1248   -7.3361    0.4395   -7.3367    0.4415  -16.3880  -67.5082
  9.740   -7.2070    0.2389   -7.6668    0.4770   -7.1775    0.2945   -7.3664    0.1191   -7.2810    0.4125   -7.2816    0.4144   -9.7980  -67.5118
  9.750   -7.1577    0.2286   -7.5876    0.4419   -7.1322    0.2797   -7.3048    0.1143   -7.2281    0.3883   -7.2288    0.3903   -5.6681  -67.5139
  9.760   -7.1105    0.2192   -7.5129    0.4111   -7.0882    0.2663   -7.2465    0.1102   -7.1774    0.3668   -7.1781    0.3687   -3.1720  -67.5151
  9.770   -7.0650    0.2106   -7.4426    0.3839   -7.0456    0.2542   -7.1912    0.1066   -7.1286    0.3473   -7.1294    0.3493   -1.7169  -67.5157
  9.780   -7.0213    0.2027   -7.3760    0.3599   -7.0042    0.2432   -7.1387    0.1034   -7.0816    0.3298   -7.0824    0.3318   -0.8987  -67.5160
  9.790   -6.9791    0.1955   -7.3129    0.3385   -6.9641    0.2331   -7.0885    0.1007   -7.0364    0.3140   -7.0372    0.3159   -0.4549  -67.5162
  9.800   -6.9383    0.1888   -7.2529    0.3194   -6.9251    0.2239   -7.0406    0.0982   -6.9927    0.2995   -6.9936    0.3015   -0.2226  -67.5163
  9.810   -6.8989    0.1826   -7.1958    0.3022   -6.8871    0.2154   -6.9946    0.0960   -6.9505    0.2864   -6.9514    0.2883   -0.1053  -67.5163
  9.820   -6.8607    0.1769   -7.1414    0.2868   -6.8502    0.2076   -6.9505    0.0940   -6.9096    0.2743   -6.9105    0.2763   -0.0482  -67.5163
  9.830   -6.8236    0.1716   -7.0893    0.2728   -6.8142    0.2005   -6.9080    0.0923   -6.8701    0.2633   -6.8710    0.2653   -0.0213  -67.5164
  9.840   -6.7875    0.1667   -7.0394    0.2602   -6.7791    0.1938   -6.8670    0.0906   -6.8317    0.2532   -6.8326    0.2551   -0.0091  -67.5164
  9.850   -6.7525    0.1620   -6.9915    0.2487   -6.7449    0.1877   -6.8274    0.0892   -6.7944    0.2438   -6.7954    0.2458   -0.0038  -67.5164
  9.860   -6.7183    0.1577   -6.9455    0.2382   -6.7115    0.1820   -6.7892    0.0878   -6.7582    0.2352   -6.7592    0.2371   -0.0015  -67.5164
  9.870   -6.6850    0.1537   -6.9012    0.2286   -6.6788    0.1767   -6.7521    0.0865   -6.7229    0.2271   -6.7239    0.2291   -0.0006  -67.5164
  9.880   -6.6525    0.1499   -6.8584    0.2198   -6.6469    0.1718   -6.7161    0.0854   -6.6886    0.2197   -6.6896    0.2216   -0.0002  -67.5164
  9.890   -6.6208    0.1463   -6.8171    0.2117   -6.6157    0.1671   -6.6811    0.0843   -6.6551    0.2128   -6.6561    0.2147   -0.0001  -67.5164
  9.900   -6.5897    0.1430   -6.7772    0.2042   -6.5851    0.1628   -6.6471    0.0833   -6.6224    0.2063   -6.6234    0.2083   -0.0000  -67.5164
  9.910   -6.5594    0.1398   -6.7385    0.1973   -6.5551    0.1588   -6.6139    0.0824   -6.5905    0.2003   -6.5915    0.2022   -0.0000  -67.5164
  9.920   -6.5296    0.1368   -6.7010    0.1909   -6.5258    0.1550   -6.5816    0.0815   -6.5593    0.1947   -6.5603    0.1966   -0.0000  -67.5164
  9.930   -6.5005    0.1340   -6.6645    0.1850   -6.4969    0.1514   -6.5501    0.0807   -6.5287    0.1894   -6.5298    0.1913   -0.0000  -67.5164
  9.940   -6.4719    0.1314   -6.6291    0.1795   -6.4686    0.1480   -6.5193    0.0799   -6.4988    0.1844   -6.4999    0.1863   -0.0000  -67.5164
  9.950   -6.4439    0.1288   -6.5946    0.1744   -6.4409    0.1449   -6.4891    0.0791   -6.4695    0.1798   -6.4706    0.1817   -0.0000  -67.5164
  9.960   -6.4163    0.1264   -6.5610    0.1696   -6.4135    0.1419   -6.4596    0.0784   -6.4408    0.1754   -6.4419    0.1773   -0.0000  -67.5164
  9.970   -6.3892    0.1241   -6.5283    0.1651   -6.3867    0.1390   -6.4308    0.0778   -6.4126    0.1712   -6.4137    0.1731   -0.0000  -67.5164
  9.980   -6.3626    0.1220   -6.4963    0.1609   -6.3603    0.1363   -6.4024    0.0771   -6.3850    0.1673   -6.3861    0.1692   -0.0000  -67.5164
  9.990   -6.3365    0.1199   -6.4651    0.1569   -6.3343    0.1338   -6.3747    0.0765   -6.3578    0.1636   -6.3589    0.1655   -0.0000  -67.5164
 10.000   -6.3107    0.1179   -6.4346    0.1532   -6.3087    0.1314   -6.3474    0.0759   -6.3311    0.1601   -6.3322    0.1620   -0.0000  -67.5164
