# Macroscopic dielectric function obtained with the BS equation.
#  RPA L0 with KS energies and KS wavefunctions     LOCAL FIELD EFFECTS INCLUDED
# RESONANT-ONLY calculation
# Coulomb term constructed with full W(G1,G2)
# Scissor operator energy =  0.8000 [eV]
# nstates included in the diagonalization = 96
# npweps  = 113
# npwwfn  = 283
# nbands  = 8
# loband  = 2
# nkibz   = 3
# nkbz    = 8
# Lorentzian broadening =  0.0000 [eV]
# List of q-points for the optical limit:
# q =  0.938821, 0.000000, 0.000000, [Reduced coords] 
# q =  0.000000, 0.938821, 0.000000, [Reduced coords] 
# q =  0.000000, 0.000000, 0.938821, [Reduced coords] 
# q =  0.000000, 0.813043, 0.813043, [Reduced coords] 
# q =  0.813043, 0.000000, 0.813043, [Reduced coords] 
# q =  0.813043, 0.813043, 0.000000, [Reduced coords] 
# omega [eV]    RE(eps(q=1)) IM(eps(q=1) RE(eps(q=2) ) ... DOS   IDOS
  0.000   57.5626    0.4342   57.4466    0.5788   57.4664    0.5740   57.4978    0.3957   57.6700    0.5278   57.6607    0.5350   -0.0000   -0.0000
  0.010   57.5631    0.4531   57.4469    0.5982   57.4667    0.5933   57.4984    0.4147   57.6704    0.5477   57.6611    0.5549   -0.0000   -0.0000
  0.020   57.5649    0.4719   57.4485    0.6176   57.4682    0.6127   57.5003    0.4338   57.6721    0.5676   57.6628    0.5748   -0.0000   -0.0000
  0.030   57.5680    0.4908   57.4513    0.6370   57.4709    0.6321   57.5034    0.4529   57.6750    0.5875   57.6657    0.5948   -0.0000   -0.0000
  0.040   57.5722    0.5097   57.4553    0.6564   57.4749    0.6515   57.5078    0.4720   57.6791    0.6075   57.6698    0.6148   -0.0000   -0.0000
  0.050   57.5778    0.5287   57.4605    0.6759   57.4801    0.6710   57.5133    0.4912   57.6845    0.6276   57.6752    0.6348   -0.0000   -0.0000
  0.060   57.5845    0.5477   57.4670    0.6954   57.4866    0.6905   57.5202    0.5103   57.6911    0.6476   57.6819    0.6549   -0.0000   -0.0000
  0.070   57.5925    0.5667   57.4747    0.7150   57.4943    0.7101   57.5282    0.5296   57.6990    0.6677   57.6897    0.6750   -0.0000   -0.0000
  0.080   57.6018    0.5858   57.4836    0.7347   57.5032    0.7297   57.5375    0.5488   57.7081    0.6879   57.6989    0.6952   -0.0000   -0.0000
  0.090   57.6123    0.6049   57.4938    0.7543   57.5134    0.7494   57.5481    0.5682   57.7185    0.7081   57.7092    0.7155   -0.0000   -0.0000
  0.100   57.6240    0.6241   57.5052    0.7741   57.5248    0.7692   57.5599    0.5875   57.7301    0.7284   57.7209    0.7358   -0.0000   -0.0000
  0.110   57.6370    0.6433   57.5179    0.7939   57.5374    0.7890   57.5729    0.6069   57.7430    0.7487   57.7337    0.7561   -0.0000   -0.0000
  0.120   57.6512    0.6626   57.5318    0.8138   57.5513    0.8088   57.5872    0.6264   57.7571    0.7691   57.7479    0.7765   -0.0000   -0.0000
  0.130   57.6667    0.6819   57.5469    0.8337   57.5664    0.8287   57.6027    0.6459   57.7725    0.7896   57.7633    0.7970   -0.0000   -0.0000
  0.140   57.6835    0.7013   57.5633    0.8537   57.5828    0.8487   57.6195    0.6655   57.7892    0.8101   57.7799    0.8175   -0.0000   -0.0000
  0.150   57.7015    0.7208   57.5810    0.8738   57.6004    0.8688   57.6375    0.6851   57.8071    0.8307   57.7978    0.8381   -0.0000   -0.0000
  0.160   57.7207    0.7403   57.5998    0.8939   57.6192    0.8889   57.6568    0.7048   57.8263    0.8513   57.8170    0.8588   -0.0000   -0.0000
  0.170   57.7412    0.7599   57.6200    0.9141   57.6393    0.9091   57.6774    0.7245   57.8467    0.8721   57.8374    0.8795   -0.0000   -0.0000
  0.180   57.7630    0.7795   57.6413    0.9344   57.6607    0.9294   57.6992    0.7444   57.8684    0.8929   57.8591    0.9004   -0.0000   -0.0000
  0.190   57.7860    0.7993   57.6640    0.9548   57.6833    0.9497   57.7222    0.7643   57.8914    0.9138   57.8821    0.9213   -0.0000   -0.0000
  0.200   57.8103    0.8191   57.6879    0.9752   57.7072    0.9702   57.7466    0.7842   57.9156    0.9347   57.9063    0.9422   -0.0000   -0.0000
  0.210   57.8359    0.8389   57.7131    0.9958   57.7324    0.9907   57.7722    0.8043   57.9412    0.9558   57.9318    0.9633   -0.0000   -0.0000
  0.220   57.8628    0.8589   57.7395    1.0164   57.7588    1.0113   57.7991    0.8244   57.9680    0.9769   57.9586    0.9845   -0.0000   -0.0000
  0.230   57.8909    0.8789   57.7672    1.0371   57.7865    1.0321   57.8272    0.8446   57.9961    0.9982   57.9867    1.0057   -0.0000   -0.0000
  0.240   57.9203    0.8991   57.7962    1.0579   57.8154    1.0529   57.8566    0.8649   58.0254    1.0195   58.0161    1.0271   -0.0000   -0.0000
  0.250   57.9510    0.9193   57.8264    1.0789   57.8457    1.0738   57.8874    0.8853   58.0561    1.0409   58.0468    1.0485   -0.0000   -0.0000
  0.260   57.9830    0.9396   57.8579    1.0999   57.8772    1.0948   57.9194    0.9058   58.0881    1.0625   58.0787    1.0701   -0.0000   -0.0000
  0.270   58.0163    0.9600   57.8908    1.1210   57.9100    1.1159   57.9527    0.9263   58.1213    1.0841   58.1120    1.0917   -0.0000   -0.0000
  0.280   58.0509    0.9805   57.9249    1.1422   57.9441    1.1371   57.9873    0.9470   58.1559    1.1059   58.1466    1.1135   -0.0000   -0.0000
  0.290   58.0868    1.0011   57.9603    1.1636   57.9795    1.1585   58.0232    0.9678   58.1918    1.1277   58.1824    1.1354   -0.0000   -0.0000
  0.300   58.1240    1.0218   57.9970    1.1850   58.0162    1.1799   58.0604    0.9886   58.2290    1.1497   58.2196    1.1573   -0.0000   -0.0000
  0.310   58.1625    1.0427   58.0350    1.2066   58.0542    1.2015   58.0989    1.0096   58.2675    1.1718   58.2581    1.1794   -0.0000   -0.0000
  0.320   58.2023    1.0636   58.0743    1.2283   58.0935    1.2231   58.1388    1.0307   58.3074    1.1940   58.2980    1.2017   -0.0000   -0.0000
  0.330   58.2435    1.0846   58.1149    1.2501   58.1341    1.2450   58.1800    1.0519   58.3485    1.2163   58.3391    1.2240   -0.0000   -0.0000
  0.340   58.2860    1.1058   58.1569    1.2721   58.1761    1.2669   58.2225    1.0732   58.3910    1.2388   58.3817    1.2465   -0.0000   -0.0000
  0.350   58.3298    1.1271   58.2002    1.2941   58.2194    1.2889   58.2663    1.0946   58.4349    1.2613   58.4255    1.2691   -0.0000   -0.0000
  0.360   58.3750    1.1485   58.2448    1.3164   58.2640    1.3111   58.3115    1.1162   58.4801    1.2841   58.4707    1.2918   -0.0000   -0.0000
  0.370   58.4215    1.1700   58.2908    1.3387   58.3099    1.3335   58.3580    1.1379   58.5266    1.3069   58.5172    1.3147   -0.0000   -0.0000
  0.380   58.4694    1.1917   58.3381    1.3612   58.3572    1.3560   58.4059    1.1597   58.5746    1.3299   58.5652    1.3377   -0.0000   -0.0000
  0.390   58.5186    1.2135   58.3867    1.3838   58.4059    1.3786   58.4551    1.1816   58.6239    1.3531   58.6144    1.3609   -0.0000   -0.0000
  0.400   58.5692    1.2354   58.4367    1.4066   58.4559    1.4013   58.5057    1.2037   58.6745    1.3764   58.6651    1.3842   -0.0000   -0.0000
  0.410   58.6212    1.2575   58.4881    1.4295   58.5073    1.4243   58.5577    1.2259   58.7266    1.3998   58.7171    1.4077   -0.0000   -0.0000
  0.420   58.6746    1.2797   58.5409    1.4526   58.5600    1.4473   58.6111    1.2483   58.7800    1.4234   58.7705    1.4313   -0.0000   -0.0000
  0.430   58.7294    1.3021   58.5950    1.4758   58.6142    1.4706   58.6658    1.2708   58.8348    1.4472   58.8254    1.4551   -0.0000   -0.0000
  0.440   58.7855    1.3246   58.6505    1.4993   58.6697    1.4940   58.7220    1.2935   58.8911    1.4711   58.8816    1.4790   -0.0000   -0.0000
  0.450   58.8431    1.3473   58.7075    1.5228   58.7266    1.5175   58.7795    1.3163   58.9487    1.4952   58.9392    1.5031   -0.0000   -0.0000
  0.460   58.9021    1.3701   58.7658    1.5466   58.7849    1.5412   58.8385    1.3393   59.0078    1.5195   58.9983    1.5274   -0.0000   -0.0000
  0.470   58.9625    1.3931   58.8255    1.5705   58.8447    1.5651   58.8989    1.3624   59.0683    1.5439   59.0588    1.5518   -0.0000   -0.0000
  0.480   59.0243    1.4163   58.8867    1.5946   58.9058    1.5892   58.9607    1.3857   59.1302    1.5685   59.1207    1.5765   -0.0000   -0.0000
  0.490   59.0876    1.4396   58.9493    1.6188   58.9684    1.6135   59.0240    1.4092   59.1936    1.5933   59.1841    1.6013   -0.0000   -0.0000
  0.500   59.1524    1.4631   59.0133    1.6433   59.0324    1.6379   59.0887    1.4328   59.2585    1.6183   59.2489    1.6263   -0.0000   -0.0000
  0.510   59.2186    1.4868   59.0788    1.6680   59.0979    1.6626   59.1549    1.4566   59.3248    1.6435   59.3152    1.6515   -0.0000   -0.0000
  0.520   59.2862    1.5107   59.1457    1.6928   59.1649    1.6874   59.2225    1.4806   59.3926    1.6689   59.3830    1.6769   -0.0000   -0.0000
  0.530   59.3554    1.5348   59.2141    1.7179   59.2333    1.7124   59.2917    1.5048   59.4618    1.6945   59.4523    1.7025   -0.0000   -0.0000
  0.540   59.4260    1.5590   59.2840    1.7431   59.3032    1.7377   59.3623    1.5292   59.5326    1.7203   59.5230    1.7283   -0.0000   -0.0000
  0.550   59.4982    1.5835   59.3554    1.7686   59.3745    1.7631   59.4344    1.5538   59.6049    1.7463   59.5953    1.7543   -0.0000   -0.0000
  0.560   59.5718    1.6081   59.4283    1.7942   59.4474    1.7888   59.5080    1.5786   59.6787    1.7725   59.6691    1.7806   -0.0000   -0.0000
  0.570   59.6470    1.6330   59.5027    1.8201   59.5218    1.8147   59.5832    1.6036   59.7540    1.7989   59.7444    1.8070   -0.0000   -0.0000
  0.580   59.7237    1.6580   59.5786    1.8462   59.5977    1.8407   59.6599    1.6288   59.8309    1.8256   59.8213    1.8337   -0.0000   -0.0000
  0.590   59.8020    1.6833   59.6560    1.8726   59.6752    1.8671   59.7381    1.6542   59.9093    1.8525   59.8997    1.8606   -0.0000   -0.0000
  0.600   59.8818    1.7088   59.7350    1.8991   59.7541    1.8936   59.8179    1.6798   59.9892    1.8796   59.9796    1.8878   -0.0000   -0.0000
  0.610   59.9632    1.7345   59.8155    1.9259   59.8347    1.9204   59.8992    1.7056   60.0708    1.9070   60.0612    1.9151   -0.0000   -0.0000
  0.620   60.0461    1.7605   59.8976    1.9530   59.9168    1.9474   59.9821    1.7317   60.1539    1.9346   60.1443    1.9428   -0.0000   -0.0000
  0.630   60.1307    1.7867   59.9813    1.9803   60.0005    1.9747   60.0666    1.7580   60.2387    1.9624   60.2290    1.9706   -0.0000   -0.0000
  0.640   60.2169    1.8131   60.0666    2.0078   60.0858    2.0023   60.1528    1.7846   60.3250    1.9906   60.3154    1.9988   -0.0000   -0.0000
  0.650   60.3047    1.8397   60.1535    2.0356   60.1727    2.0300   60.2405    1.8114   60.4130    2.0189   60.4034    2.0272   -0.0000   -0.0000
  0.660   60.3941    1.8666   60.2420    2.0637   60.2612    2.0581   60.3299    1.8384   60.5026    2.0476   60.4930    2.0558   -0.0000   -0.0000
  0.670   60.4852    1.8938   60.3321    2.0920   60.3513    2.0864   60.4209    1.8657   60.5939    2.0765   60.5842    2.0848   -0.0000   -0.0000
  0.680   60.5779    1.9212   60.4239    2.1206   60.4431    2.1150   60.5136    1.8932   60.6869    2.1057   60.6772    2.1140   -0.0000   -0.0000
  0.690   60.6723    1.9489   60.5173    2.1495   60.5366    2.1439   60.6080    1.9211   60.7815    2.1352   60.7718    2.1435   -0.0000   -0.0000
  0.700   60.7684    1.9769   60.6125    2.1787   60.6317    2.1730   60.7040    1.9492   60.8778    2.1650   60.8681    2.1733   -0.0000   -0.0000
  0.710   60.8662    2.0051   60.7093    2.2081   60.7285    2.2025   60.8018    1.9775   60.9759    2.1950   60.9661    2.2034   -0.0000   -0.0000
  0.720   60.9658    2.0337   60.8078    2.2379   60.8271    2.2322   60.9013    2.0062   61.0756    2.2254   61.0659    2.2338   -0.0000   -0.0000
  0.730   61.0670    2.0625   60.9080    2.2680   60.9273    2.2623   61.0025    2.0351   61.1772    2.2561   61.1674    2.2645   -0.0000   -0.0000
  0.740   61.1701    2.0916   61.0100    2.2983   61.0293    2.2926   61.1054    2.0643   61.2804    2.2871   61.2707    2.2955   -0.0000   -0.0000
  0.750   61.2749    2.1210   61.1137    2.3290   61.1331    2.3233   61.2102    2.0939   61.3855    2.3184   61.3757    2.3268   -0.0000   -0.0000
  0.760   61.3814    2.1507   61.2192    2.3600   61.2386    2.3543   61.3167    2.1237   61.4923    2.3501   61.4825    2.3585   -0.0000   -0.0000
  0.770   61.4898    2.1807   61.3265    2.3914   61.3459    2.3856   61.4250    2.1539   61.6010    2.3820   61.5912    2.3905   -0.0000   -0.0000
  0.780   61.6001    2.2111   61.4356    2.4231   61.4550    2.4173   61.5352    2.1843   61.7115    2.4144   61.7017    2.4228   -0.0000   -0.0000
  0.790   61.7121    2.2418   61.5466    2.4551   61.5659    2.4493   61.6472    2.2152   61.8238    2.4471   61.8140    2.4555   -0.0000   -0.0000
  0.800   61.8260    2.2728   61.6593    2.4875   61.6787    2.4817   61.7610    2.2463   61.9381    2.4801   61.9282    2.4886   -0.0000   -0.0000
  0.810   61.9418    2.3041   61.7740    2.5202   61.7934    2.5144   61.8768    2.2778   62.0542    2.5135   62.0443    2.5220   -0.0000   -0.0000
  0.820   62.0595    2.3358   61.8905    2.5533   61.9099    2.5475   61.9944    2.3096   62.1722    2.5473   62.1623    2.5558   -0.0000   -0.0000
  0.830   62.1792    2.3679   62.0089    2.5868   62.0283    2.5810   62.1140    2.3418   62.2921    2.5814   62.2822    2.5900   -0.0000   -0.0000
  0.840   62.3007    2.4003   62.1292    2.6206   62.1487    2.6148   62.2354    2.3743   62.4140    2.6160   62.4041    2.6245   -0.0000   -0.0000
  0.850   62.4242    2.4331   62.2515    2.6549   62.2710    2.6490   62.3589    2.4073   62.5378    2.6509   62.5279    2.6595   -0.0000   -0.0000
  0.860   62.5497    2.4663   62.3757    2.6895   62.3952    2.6837   62.4843    2.4406   62.6636    2.6863   62.6537    2.6949   -0.0000   -0.0000
  0.870   62.6772    2.4999   62.5019    2.7246   62.5214    2.7187   62.6117    2.4743   62.7915    2.7221   62.7815    2.7307   -0.0000   -0.0000
  0.880   62.8068    2.5338   62.6301    2.7601   62.6497    2.7542   62.7412    2.5084   62.9214    2.7583   62.9114    2.7669   -0.0000   -0.0000
  0.890   62.9383    2.5682   62.7604    2.7959   62.7799    2.7900   62.8727    2.5429   63.0533    2.7949   63.0433    2.8035   -0.0000   -0.0000
  0.900   63.0720    2.6030   62.8926    2.8323   62.9122    2.8263   63.0063    2.5778   63.1873    2.8320   63.1773    2.8406   -0.0000   -0.0000
  0.910   63.2077    2.6382   63.0270    2.8690   63.0466    2.8631   63.1419    2.6131   63.3234    2.8695   63.3134    2.8781   -0.0000   -0.0000
  0.920   63.3456    2.6738   63.1635    2.9063   63.1831    2.9003   63.2797    2.6489   63.4616    2.9075   63.4516    2.9161   -0.0000   -0.0000
  0.930   63.4856    2.7099   63.3020    2.9439   63.3217    2.9380   63.4196    2.6851   63.6020    2.9459   63.5920    2.9546   -0.0000   -0.0000
  0.940   63.6277    2.7464   63.4428    2.9821   63.4624    2.9761   63.5617    2.7217   63.7446    2.9848   63.7345    2.9935   -0.0000   -0.0000
  0.950   63.7721    2.7834   63.5856    3.0207   63.6054    3.0147   63.7060    2.7589   63.8893    3.0243   63.8793    3.0330   -0.0000   -0.0000
  0.960   63.9187    2.8209   63.7307    3.0598   63.7505    3.0538   63.8525    2.7965   64.0363    3.0642   64.0263    3.0729   -0.0000   -0.0000
  0.970   64.0675    2.8588   63.8780    3.0995   63.8978    3.0934   64.0012    2.8345   64.1856    3.1046   64.1755    3.1134   -0.0000   -0.0000
  0.980   64.2186    2.8972   64.0276    3.1396   64.0474    3.1335   64.1522    2.8731   64.3371    3.1456   64.3270    3.1543   -0.0000   -0.0000
  0.990   64.3720    2.9361   64.1794    3.1802   64.1993    3.1742   64.3056    2.9122   64.4910    3.1871   64.4808    3.1958   -0.0000   -0.0000
  1.000   64.5278    2.9756   64.3336    3.2214   64.3534    3.2154   64.4612    2.9518   64.6471    3.2291   64.6370    3.2379   -0.0000   -0.0000
  1.010   64.6859    3.0156   64.4901    3.2632   64.5099    3.2571   64.6192    2.9919   64.8057    3.2718   64.7955    3.2805   -0.0000   -0.0000
  1.020   64.8464    3.0561   64.6489    3.3055   64.6688    3.2994   64.7796    3.0325   64.9666    3.3149   64.9565    3.3237   -0.0000   -0.0000
  1.030   65.0093    3.0971   64.8101    3.3483   64.8301    3.3422   64.9425    3.0737   65.1300    3.3587   65.1199    3.3675   -0.0000   -0.0000
  1.040   65.1746    3.1387   64.9738    3.3918   64.9938    3.3857   65.1077    3.1155   65.2959    3.4031   65.2857    3.4119   -0.0000   -0.0000
  1.050   65.3425    3.1809   65.1399    3.4358   65.1599    3.4297   65.2755    3.1578   65.4642    3.4480   65.4540    3.4568   -0.0000   -0.0000
  1.060   65.5129    3.2237   65.3085    3.4805   65.3285    3.4743   65.4458    3.2007   65.6351    3.4936   65.6249    3.5024   -0.0000   -0.0000
  1.070   65.6858    3.2670   65.4796    3.5258   65.4997    3.5196   65.6186    3.2442   65.8085    3.5399   65.7983    3.5487   -0.0000   -0.0000
  1.080   65.8613    3.3110   65.6533    3.5717   65.6734    3.5655   65.7940    3.2884   65.9845    3.5867   65.9743    3.5956   -0.0000   -0.0000
  1.090   66.0395    3.3556   65.8296    3.6183   65.8497    3.6120   65.9721    3.3331   66.1632    3.6343   66.1530    3.6431   -0.0000   -0.0000
  1.100   66.2202    3.4009   66.0085    3.6655   66.0287    3.6593   66.1528    3.3785   66.3445    3.6825   66.3343    3.6914   -0.0000   -0.0000
  1.110   66.4037    3.4468   66.1901    3.7134   66.2103    3.7072   66.3362    3.4246   66.5286    3.7315   66.5183    3.7403   -0.0000   -0.0000
  1.120   66.5900    3.4933   66.3743    3.7620   66.3946    3.7557   66.5223    3.4713   66.7153    3.7811   66.7050    3.7900   -0.0000   -0.0000
  1.130   66.7789    3.5406   66.5613    3.8113   66.5816    3.8051   66.7112    3.5187   66.9049    3.8315   66.8946    3.8404   -0.0000   -0.0000
  1.140   66.9708    3.5885   66.7511    3.8614   66.7714    3.8551   66.9029    3.5668   67.0973    3.8826   67.0869    3.8915   -0.0000   -0.0000
  1.150   67.1654    3.6372   66.9437    3.9122   66.9640    3.9059   67.0975    3.6157   67.2925    3.9345   67.2822    3.9434   -0.0000   -0.0000
  1.160   67.3629    3.6866   67.1391    3.9637   67.1595    3.9574   67.2949    3.6652   67.4906    3.9871   67.4803    3.9961   -0.0000   -0.0000
  1.170   67.5634    3.7367   67.3375    4.0160   67.3579    4.0097   67.4953    3.7156   67.6917    4.0406   67.6813    4.0495   -0.0000   -0.0000
  1.180   67.7669    3.7876   67.5388    4.0692   67.5592    4.0628   67.6987    3.7667   67.8958    4.0949   67.8854    4.1038   -0.0000   -0.0000
  1.190   67.9734    3.8393   67.7430    4.1231   67.7635    4.1167   67.9050    3.8185   68.1029    4.1500   68.0925    4.1589   -0.0000   -0.0000
  1.200   68.1829    3.8918   67.9503    4.1779   67.9708    4.1715   68.1145    3.8712   68.3130    4.2060   68.3026    4.2149   -0.0000   -0.0000
  1.210   68.3956    3.9452   68.1607    4.2335   68.1813    4.2271   68.3270    3.9247   68.5263    4.2628   68.5159    4.2718   -0.0000   -0.0000
  1.220   68.6114    3.9993   68.3741    4.2900   68.3948    4.2836   68.5428    3.9791   68.7428    4.3206   68.7324    4.3295   -0.0000   -0.0000
  1.230   68.8304    4.0544   68.5908    4.3474   68.6115    4.3410   68.7617    4.0343   68.9625    4.3792   68.9521    4.3882   -0.0000   -0.0000
  1.240   69.0527    4.1103   68.8106    4.4057   68.8314    4.3993   68.9839    4.0904   69.1855    4.4389   69.1750    4.4478   -0.0000   -0.0000
  1.250   69.2783    4.1671   69.0338    4.4650   69.0545    4.4585   69.2094    4.1475   69.4117    4.4994   69.4013    4.5084   -0.0000   -0.0000
  1.260   69.5072    4.2248   69.2602    4.5252   69.2810    4.5187   69.4382    4.2054   69.6414    4.5610   69.6309    4.5699   -0.0000   -0.0000
  1.270   69.7396    4.2835   69.4900    4.5864   69.5109    4.5799   69.6705    4.2643   69.8745    4.6236   69.8640    4.6325   -0.0000   -0.0000
  1.280   69.9754    4.3432   69.7232    4.6486   69.7441    4.6421   69.9063    4.3242   70.1110    4.6872   70.1005    4.6961   -0.0001   -0.0000
  1.290   70.2148    4.4039   69.9600    4.7118   69.9809    4.7053   70.1455    4.3851   70.3511    4.7518   70.3406    4.7608   -0.0001   -0.0000
  1.300   70.4577    4.4656   70.2002    4.7761   70.2212    4.7696   70.3884    4.4470   70.5948    4.8176   70.5843    4.8265   -0.0001   -0.0000
  1.310   70.7043    4.5283   70.4440    4.8415   70.4651    4.8349   70.6349    4.5100   70.8421    4.8845   70.8316    4.8934   -0.0001   -0.0000
  1.320   70.9546    4.5921   70.6915    4.9080   70.7126    4.9014   70.8851    4.5740   71.0932    4.9525   71.0827    4.9614   -0.0001   -0.0000
  1.330   71.2086    4.6570   70.9427    4.9756   70.9638    4.9690   71.1390    4.6392   71.3480    5.0216   71.3375    5.0306   -0.0001   -0.0000
  1.340   71.4665    4.7230   71.1976    5.0444   71.2188    5.0378   71.3968    4.7054   71.6067    5.0920   71.5961    5.1010   -0.0001   -0.0000
  1.350   71.7282    4.7902   71.4564    5.1144   71.4777    5.1077   71.6585    4.7729   71.8692    5.1636   71.8587    5.1726   -0.0001   -0.0000
  1.360   71.9940    4.8586   71.7191    5.1856   71.7404    5.1789   71.9241    4.8415   72.1358    5.2365   72.1252    5.2455   -0.0001   -0.0000
  1.370   72.2637    4.9282   71.9858    5.2580   72.0071    5.2514   72.1938    4.9114   72.4064    5.3107   72.3958    5.3196   -0.0002   -0.0000
  1.380   72.5375    4.9990   72.2565    5.3318   72.2778    5.3251   72.4675    4.9825   72.6810    5.3862   72.6705    5.3951   -0.0002   -0.0000
  1.390   72.8155    5.0711   72.5312    5.4069   72.5527    5.4002   72.7455    5.0549   72.9599    5.4630   72.9493    5.4720   -0.0002   -0.0000
  1.400   73.0978    5.1446   72.8102    5.4833   72.8317    5.4766   73.0276    5.1286   73.2430    5.5413   73.2325    5.5502   -0.0002   -0.0000
  1.410   73.3843    5.2193   73.0934    5.5611   73.1150    5.5544   73.3141    5.2037   73.5305    5.6210   73.5199    5.6299   -0.0002   -0.0000
  1.420   73.6753    5.2955   73.3810    5.6404   73.4026    5.6337   73.6050    5.2802   73.8223    5.7022   73.8117    5.7111   -0.0003   -0.0000
  1.430   73.9707    5.3731   73.6729    5.7211   73.6946    5.7144   73.9004    5.3581   74.1186    5.7848   74.1081    5.7937   -0.0003   -0.0000
  1.440   74.2707    5.4521   73.9693    5.8033   73.9911    5.7966   74.2003    5.4374   74.4195    5.8691   74.4090    5.8779   -0.0003   -0.0000
  1.450   74.5753    5.5327   74.2703    5.8871   74.2921    5.8803   74.5048    5.5183   74.7251    5.9549   74.7145    5.9637   -0.0004   -0.0000
  1.460   74.8846    5.6148   74.5760    5.9724   74.5978    5.9657   74.8141    5.6007   75.0354    6.0423   75.0248    6.0512   -0.0004   -0.0000
  1.470   75.1987    5.6984   74.8863    6.0594   74.9082    6.0526   75.1282    5.6847   75.3505    6.1315   75.3399    6.1403   -0.0005   -0.0000
  1.480   75.5178    5.7837   75.2015    6.1481   75.2235    6.1413   75.4472    5.7704   75.6705    6.2224   75.6599    6.2312   -0.0005   -0.0000
  1.490   75.8418    5.8707   75.5216    6.2385   75.5436    6.2316   75.7711    5.8577   75.9955    6.3150   75.9850    6.3238   -0.0006   -0.0000
  1.500   76.1709    5.9593   75.8467    6.3306   75.8688    6.3238   76.1002    5.9467   76.3257    6.4095   76.3151    6.4182   -0.0006   -0.0000
  1.510   76.5052    6.0497   76.1770    6.4246   76.1991    6.4177   76.4345    6.0375   76.6610    6.5058   76.6504    6.5145   -0.0007   -0.0000
  1.520   76.8448    6.1420   76.5124    6.5204   76.5346    6.5135   76.7740    6.1302   77.0016    6.6041   76.9911    6.6128   -0.0008   -0.0000
  1.530   77.1897    6.2361   76.8531    6.6181   76.8753    6.6112   77.1190    6.2247   77.3477    6.7043   77.3371    6.7130   -0.0009   -0.0000
  1.540   77.5402    6.3321   77.1992    6.7178   77.2215    6.7109   77.4694    6.3212   77.6992    6.8066   77.6887    6.8153   -0.0010   -0.0000
  1.550   77.8963    6.4301   77.5508    6.8196   77.5732    6.8127   77.8255    6.4196   78.0564    6.9110   78.0459    6.9196   -0.0011   -0.0000
  1.560   78.2581    6.5301   77.9080    6.9234   77.9305    6.9165   78.1872    6.5201   78.4192    7.0175   78.4088    7.0261   -0.0012   -0.0000
  1.570   78.6257    6.6323   78.2710    7.0294   78.2935    7.0225   78.5548    6.6227   78.7880    7.1263   78.7775    7.1349   -0.0014   -0.0000
  1.580   78.9992    6.7365   78.6398    7.1376   78.6624    7.1306   78.9284    6.7274   79.1627    7.2373   79.1522    7.2459   -0.0015   -0.0000
  1.590   79.3788    6.8430   79.0146    7.2480   79.0372    7.2411   79.3080    6.8344   79.5435    7.3507   79.5330    7.3593   -0.0017   -0.0000
  1.600   79.7647    6.9518   79.3954    7.3608   79.4182    7.3539   79.6939    6.9437   79.9305    7.4666   79.9201    7.4750   -0.0019   -0.0000
  1.610   80.1568    7.0629   79.7825    7.4760   79.8053    7.4691   80.0860    7.0553   80.3238    7.5849   80.3134    7.5933   -0.0021   -0.0000
  1.620   80.5554    7.1764   80.1759    7.5937   80.1988    7.5867   80.4847    7.1694   80.7236    7.7058   80.7132    7.7142   -0.0023   -0.0000
  1.630   80.9606    7.2924   80.5758    7.7140   80.5987    7.7070   80.8899    7.2860   81.1300    7.8293   81.1197    7.8377   -0.0025   -0.0000
  1.640   81.3725    7.4110   80.9823    7.8369   81.0053    7.8298   81.3019    7.4051   81.5432    7.9555   81.5329    7.9639   -0.0028   -0.0000
  1.650   81.7913    7.5322   81.3956    7.9625   81.4186    7.9554   81.7208    7.5270   81.9633    8.0846   81.9530    8.0929   -0.0031   -0.0000
  1.660   82.2172    7.6561   81.8157    8.0909   81.8388    8.0838   82.1467    7.6516   82.3904    8.2166   82.3801    8.2248   -0.0034   -0.0000
  1.670   82.6502    7.7829   82.2429    8.2221   82.2661    8.2151   82.5797    7.7790   82.8247    8.3516   82.8144    8.3598   -0.0038   -0.0000
  1.680   83.0905    7.9126   82.6773    8.3564   82.7006    8.3493   83.0202    7.9093   83.2663    8.4896   83.2561    8.4977   -0.0042   -0.0000
  1.690   83.5384    8.0453   83.1190    8.4937   83.1424    8.4867   83.4681    8.0427   83.7155    8.6308   83.7053    8.6389   -0.0046   -0.0000
  1.700   83.9939    8.1810   83.5683    8.6342   83.5917    8.6271   83.9237    8.1792   84.1723    8.7753   84.1622    8.7834   -0.0051   -0.0000
  1.710   84.4572    8.3200   84.0253    8.7780   84.0488    8.7709   84.3872    8.3189   84.6370    8.9232   84.6270    8.9312   -0.0056   -0.0000
  1.720   84.9286    8.4622   84.4901    8.9251   84.5137    8.9180   84.8587    8.4619   85.1098    9.0746   85.0998    9.0826   -0.0061   -0.0000
  1.730   85.4082    8.6078   84.9630    9.0757   84.9866    9.0686   85.3384    8.6084   85.5907    9.2297   85.5808    9.2375   -0.0068   -0.0000
  1.740   85.8961    8.7570   85.4440    9.2299   85.4678    9.2228   85.8265    8.7584   86.0801    9.3884   86.0702    9.3962   -0.0075   -0.0000
  1.750   86.3927    8.9098   85.9335    9.3878   85.9574    9.3807   86.3233    8.9120   86.5781    9.5510   86.5682    9.5587   -0.0082   -0.0000
  1.760   86.8980    9.0663   86.4317    9.5496   86.4555    9.5424   86.8288    9.0695   87.0848    9.7176   87.0751    9.7252   -0.0090   -0.0000
  1.770   87.4123    9.2268   86.9386    9.7153   86.9625    9.7082   87.3433    9.2308   87.6006    9.8883   87.5909    9.8959   -0.0099   -0.0000
  1.780   87.9358    9.3912   87.4545    9.8851   87.4786    9.8780   87.8671    9.3962   88.1256   10.0633   88.1160   10.0707   -0.0109   -0.0000
  1.790   88.4688    9.5598   87.9797   10.0592   88.0038   10.0520   88.4003    9.5658   88.6600   10.2426   88.6505   10.2500   -0.0120   -0.0000
  1.800   89.0114    9.7327   88.5143   10.2376   88.5385   10.2305   88.9431    9.7398   89.2041   10.4266   89.1947   10.4339   -0.0131   -0.0001
  1.810   89.5639    9.9100   89.0586   10.4206   89.0829   10.4134   89.4959    9.9182   89.7581   10.6152   89.7488   10.6225   -0.0144   -0.0001
  1.820   90.1266   10.0919   89.6129   10.6082   89.6372   10.6011   90.0588   10.1012   90.3223   10.8088   90.3130   10.8159   -0.0158   -0.0001
  1.830   90.6996   10.2786   90.1773   10.8008   90.2017   10.7936   90.6322   10.2891   90.8969   11.0074   90.8877   11.0144   -0.0173   -0.0001
  1.840   91.2833   10.4703   90.7521   10.9983   90.7766   10.9912   91.2162   10.4820   91.4821   11.2112   91.4730   11.2181   -0.0190   -0.0001
  1.850   91.8779   10.6670   91.3376   11.2011   91.3622   11.1939   91.8112   10.6800   92.0783   11.4205   92.0693   11.4273   -0.0208   -0.0001
  1.860   92.4837   10.8690   91.9340   11.4093   91.9587   11.4021   92.4174   10.8833   92.6856   11.6354   92.6767   11.6421   -0.0227   -0.0001
  1.870   93.1010   11.0766   92.5417   11.6230   92.5665   11.6159   93.0350   11.0923   93.3045   11.8561   93.2957   11.8627   -0.0249   -0.0001
  1.880   93.7300   11.2898   93.1609   11.8426   93.1857   11.8355   93.6645   11.3069   93.9351   12.0829   93.9265   12.0894   -0.0272   -0.0001
  1.890   94.3712   11.5090   93.7919   12.0682   93.8168   12.0611   94.3061   11.5276   94.5778   12.3160   94.5693   12.3223   -0.0297   -0.0001
  1.900   95.0247   11.7343   94.4350   12.3001   94.4600   12.2929   94.9602   11.7544   95.2330   12.5555   95.2246   12.5617   -0.0325   -0.0001
  1.910   95.6910   11.9660   95.0906   12.5384   95.1156   12.5312   95.6270   11.9877   95.9008   12.8019   95.8926   12.8079   -0.0354   -0.0001
  1.920   96.3704   12.2043   95.7589   12.7834   95.7840   12.7763   96.3069   12.2277   96.5818   13.0552   96.5738   13.0612   -0.0387   -0.0002
  1.930   97.0632   12.4494   96.4403   13.0355   96.4656   13.0283   97.0002   12.4747   97.2762   13.3159   97.2683   13.3217   -0.0422   -0.0002
  1.940   97.7698   12.7018   97.1352   13.2948   97.1605   13.2876   97.7074   12.7288   97.9843   13.5841   97.9767   13.5898   -0.0460   -0.0002
  1.950   98.4905   12.9615   97.8440   13.5616   97.8693   13.5545   98.4288   12.9905   98.7067   13.8603   98.6992   13.8657   -0.0501   -0.0002
  1.960   99.2259   13.2290   98.5669   13.8363   98.5923   13.8292   99.1648   13.2600   99.4436   14.1446   99.4363   14.1499   -0.0545   -0.0002
  1.970   99.9762   13.5045   99.3044   14.1191   99.3300   14.1121   99.9159   13.5376  100.1954   14.4374  100.1883   14.4426   -0.0594   -0.0003
  1.980  100.7419   13.7884  100.0570   14.4105  100.0826   14.4034  100.6823   13.8237  100.9627   14.7392  100.9558   14.7441   -0.0646   -0.0003
  1.990  101.5234   14.0810  100.8249   14.7106  100.8506   14.7036  101.4646   14.1186  101.7457   15.0502  101.7391   15.0549   -0.0702   -0.0003
  2.000  102.3212   14.3827  101.6088   15.0200  101.6345   15.0130  102.2633   14.4227  102.5450   15.3708  102.5386   15.3754   -0.0763   -0.0003
  2.010  103.1358   14.6939  102.4089   15.3390  102.4348   15.3319  103.0787   14.7363  103.3611   15.7014  103.3549   15.7058   -0.0829   -0.0004
  2.020  103.9676   15.0149  103.2259   15.6679  103.2518   15.6609  103.9114   15.0599  104.1944   16.0425  104.1885   16.0467   -0.0900   -0.0004
  2.030  104.8172   15.3462  104.0601   16.0073  104.0861   16.0002  104.7620   15.3940  105.0453   16.3946  105.0397   16.3985   -0.0977   -0.0004
  2.040  105.6851   15.6883  104.9121   16.3575  104.9381   16.3505  105.6308   15.7389  105.9145   16.7580  105.9092   16.7617   -0.1060   -0.0005
  2.050  106.5717   16.0415  105.7824   16.7190  105.8085   16.7120  106.5186   16.0951  106.8025   17.1332  106.7976   17.1368   -0.1149   -0.0005
  2.060  107.4778   16.4065  106.6716   17.0923  106.6978   17.0854  107.4257   16.4632  107.7099   17.5209  107.7052   17.5242   -0.1245   -0.0006
  2.070  108.4039   16.7837  107.5802   17.4781  107.6064   17.4711  108.3530   16.8437  108.6371   17.9216  108.6328   17.9246   -0.1348   -0.0006
  2.080  109.3505   17.1737  108.5088   17.8767  108.5351   17.8698  109.3008   17.2371  109.5849   18.3358  109.5810   18.3386   -0.1460   -0.0007
  2.090  110.3184   17.5770  109.4580   18.2888  109.4844   18.2819  110.2700   17.6441  110.5538   18.7642  110.5503   18.7667   -0.1580   -0.0007
  2.100  111.3082   17.9943  110.4285   18.7150  110.4549   18.7081  111.2611   18.0652  111.5445   19.2074  111.5414   19.2096   -0.1709   -0.0008
  2.110  112.3205   18.4263  111.4209   19.1560  111.4473   19.1491  112.2748   18.5012  112.5577   19.6661  112.5551   19.6681   -0.1849   -0.0009
  2.120  113.3562   18.8736  112.4359   19.6124  112.4624   19.6056  113.3120   18.9527  113.5941   20.1411  113.5919   20.1428   -0.1998   -0.0009
  2.130  114.4159   19.3370  113.4742   20.0850  113.5007   20.0782  114.3732   19.4205  114.6544   20.6331  114.6527   20.6345   -0.2159   -0.0010
  2.140  115.5004   19.8173  114.5365   20.5745  114.5631   20.5678  115.4593   19.9053  115.7394   21.1430  115.7383   21.1440   -0.2333   -0.0011
  2.150  116.6106   20.3152  115.6237   21.0819  115.6503   21.0752  116.5711   20.4081  116.8499   21.6716  116.8493   21.6723   -0.2520   -0.0012
  2.160  117.7472   20.8317  116.7365   21.6079  116.7632   21.6012  117.7095   20.9297  117.9867   22.2199  117.9866   22.2202   -0.2721   -0.0013
  2.170  118.9111   21.3676  117.8758   22.1535  117.9025   22.1468  118.8753   21.4711  119.1506   22.7888  119.1511   22.7888   -0.2938   -0.0014
  2.180  120.1033   21.9241  119.0424   22.7196  119.0691   22.7130  120.0693   22.0332  120.3425   23.3794  120.3437   23.3790   -0.3172   -0.0015
  2.190  121.3247   22.5021  120.2372   23.3073  120.2639   23.3007  121.2927   22.6171  121.5634   23.9928  121.5653   23.9920   -0.3424   -0.0016
  2.200  122.5763   23.1027  121.4612   23.9178  121.4879   23.9112  122.5463   23.2240  122.8142   24.6301  122.8169   24.6290   -0.3698   -0.0018
  2.210  123.8590   23.7272  122.7153   24.5521  122.7420   24.5456  123.8313   23.8552  124.0960   25.2928  124.0994   25.2913   -0.3994   -0.0019
  2.220  125.1741   24.3768  124.0006   25.2116  124.0273   25.2051  125.1485   24.5118  125.4096   25.9820  125.4139   25.9801   -0.4316   -0.0021
  2.230  126.5225   25.0528  125.3181   25.8976  125.3448   25.8912  126.4993   25.1952  126.7564   26.6992  126.7615   26.6969   -0.4666   -0.0022
  2.240  127.9055   25.7568  126.6689   26.6116  126.6955   26.6052  127.8847   25.9070  128.1373   27.4460  128.1433   27.4432   -0.5049   -0.0024
  2.250  129.3242   26.4903  128.0541   27.3550  128.0807   27.3486  129.3059   26.6487  129.5535   28.2240  129.5605   28.2208   -0.5469   -0.0026
  2.260  130.7799   27.2549  129.4750   28.1294  129.5016   28.1231  130.7643   27.4221  131.0062   29.0349  131.0143   29.0312   -0.5930   -0.0028
  2.270  132.2740   28.0523  130.9328   28.9367  130.9593   28.9305  132.2610   28.2288  132.4968   29.8806  132.5059   29.8764   -0.6439   -0.0031
  2.280  133.8077   28.8846  132.4287   29.7788  132.4551   29.7725  133.7975   29.0708  134.0264   30.7631  134.0367   30.7584   -0.7003   -0.0033
  2.290  135.3826   29.7536  133.9641   30.6575  133.9905   30.6512  135.3752   29.9503  135.5965   31.6845  135.6081   31.6794   -0.7632   -0.0036
  2.300  136.9999   30.6617  135.5404   31.5750  135.5666   31.5688  136.9956   30.8693  137.2084   32.6472  137.2213   32.6415   -0.8336   -0.0039
  2.310  138.6614   31.6111  137.1590   32.5337  137.1851   32.5275  138.6601   31.8304  138.8637   33.6535  138.8780   33.6473   -0.9127   -0.0043
  2.320  140.3686   32.6043  138.8214   33.5360  138.8474   33.5298  140.3704   32.8360  140.5637   34.7062  140.5795   34.6995   -1.0022   -0.0046
  2.330  142.1231   33.6441  140.5292   34.5845  140.5550   34.5784  142.1281   33.8889  142.3102   35.8081  142.3276   35.8008   -1.1037   -0.0050
  2.340  143.9266   34.7333  142.2839   35.6821  142.3095   35.6761  143.9350   34.9921  144.1046   36.9622  144.1237   36.9544   -1.2194   -0.0055
  2.350  145.7810   35.8750  144.0872   36.8319  144.1127   36.8259  145.7927   36.1488  145.9486   38.1718  145.9695   38.1634   -1.3519   -0.0060
  2.360  147.6880   37.0728  145.9408   38.0372  145.9661   38.0311  147.7031   37.3623  147.8440   39.4405  147.8668   39.4316   -1.5041   -0.0065
  2.370  149.6496   38.3301  147.8466   39.3015  147.8715   39.2954  149.6682   38.6365  149.7925   40.7721  149.8174   40.7626   -1.6796   -0.0072
  2.380  151.6676   39.6509  149.8062   40.6286  149.8309   40.6225  151.6897   39.9753  151.7959   42.1708  151.8230   42.1607   -1.8823   -0.0078
  2.390  153.7442   41.0396  151.8215   42.0228  151.8459   42.0167  153.7698   41.3831  153.8560   43.6409  153.8854   43.6303   -2.1172   -0.0086
  2.400  155.8814   42.5006  153.8945   43.4884  153.9186   43.4823  155.9104   42.8646  155.9747   45.1874  156.0066   45.1763   -2.3896   -0.0095
  2.410  158.0813   44.0390  156.0272   45.0304  156.0509   45.0243  158.1138   44.4248  158.1539   46.8155  158.1885   46.8038   -2.7058   -0.0105
  2.420  160.3461   45.6602  158.2214   46.6541  158.2447   46.6478  160.3819   46.0694  160.3955   48.5308  160.4330   48.5186   -3.0732   -0.0116
  2.430  162.6779   47.3700  160.4792   48.3650  160.5020   48.3587  162.7170   47.8042  162.7014   50.3394  162.7419   50.3268   -3.4999   -0.0129
  2.440  165.0790   49.1749  162.8026   50.1695  162.8250   50.1630  165.1212   49.6358  165.0735   52.2481  165.1173   52.2350   -3.9952   -0.0144
  2.450  167.5517   51.0818  165.1937   52.0742  165.2155   52.0675  167.5967   51.5713  167.5137   54.2642  167.5610   54.2506   -4.5696   -0.0161
  2.460  170.0981   53.0982  167.6543   54.0864  167.6756   54.0796  170.1456   53.6185  170.0238   56.3954  170.0749   56.3815   -5.2349   -0.0180
  2.470  172.7204   55.2324  170.1866   56.2141  170.2072   56.2071  172.7702   55.7856  172.6055   58.6503  172.6607   58.6361   -6.0038   -0.0202
  2.480  175.4208   57.4934  172.7923   58.4659  172.8122   58.4587  175.4723   58.0819  175.2605   61.0384  175.3200   61.0240   -6.8907   -0.0227
  2.490  178.2013   59.8909  175.4733   60.8514  175.4925   60.8438  178.2540   60.5174  177.9902   63.5698  178.0544   63.5552   -7.9112   -0.0256
  2.500  181.0639   62.4358  178.2311   63.3808  178.2495   63.3728  181.1170   63.1030  180.7958   66.2555  180.8650   66.2410   -9.0821   -0.0290
  2.510  184.0102   65.1396  181.0673   66.0653  181.0848   66.0569  184.0629   65.8507  183.6784   69.1079  183.7530   69.0935  -10.4216   -0.0328
  2.520  187.0416   68.0152  183.9830   68.9173  183.9995   68.9084  187.0929   68.7736  186.6384   72.1400  186.7188   72.1259  -11.9490   -0.0372
  2.530  190.1594   71.0767  186.9790   71.9502  186.9944   71.9407  190.2079   71.8860  189.6762   75.3664  189.7628   75.3528  -13.6846   -0.0422
  2.540  193.3643   74.3395  190.0557   75.1787  190.0700   75.1685  193.4085   75.2036  192.7912   78.8029  192.8846   78.7901  -15.6496   -0.0480
  2.550  196.6563   77.8204  193.2131   78.6190  193.2262   78.6079  196.6944   78.7436  195.9824   82.4668  196.0830   82.4550  -17.8659   -0.0545
  2.560  200.0350   81.5379  196.4503   82.2886  196.4621   82.2766  200.0648   82.5249  199.2479   86.3771  199.3562   86.3667  -20.3558   -0.0620
  2.570  203.4989   85.5124  199.7656   86.2069  199.7761   86.1938  203.5178   86.5681  202.5845   90.5545  202.7012   90.5458  -23.1414   -0.0705
  2.580  207.0456   89.7661  203.1565   90.3952  203.1654   90.3807  207.0505   90.8960  205.9880   95.0215  206.1137   95.0151  -26.2447   -0.0802
  2.590  210.6712   94.3235  206.6188   94.8765  206.6262   94.8605  210.6584   95.5335  209.4524   99.8030  209.5878   99.7994  -29.6869   -0.0911
  2.600  214.3704   99.2113  210.1471   99.6762  210.1528   99.6584  214.3354  100.5077  212.9699  104.9259  213.1157  104.9258  -33.4878   -0.1034
  2.610  218.1355  104.4590  213.7338  104.8221  213.7378  104.8022  218.0731  105.8485  216.5302  110.4195  216.6872  110.4237  -37.6657   -0.1172
  2.620  221.9566  110.0986  217.3691  110.3444  217.3713  110.3222  221.8606  111.5884  220.1203  116.3159  220.2892  116.3253  -42.2365   -0.1327
  2.630  225.8207  116.1652  221.0402  116.2763  221.0406  116.2513  225.6838  117.7630  223.7236  122.6497  223.9052  122.6653  -47.2135   -0.1501
  2.640  229.7110  122.6969  224.7310  122.6535  224.7295  122.6254  229.5245  124.4109  227.3193  129.4583  227.5147  129.4814  -52.6067   -0.1694
  2.650  233.6064  129.7353  228.4211  129.5152  228.4177  129.4834  233.3600  131.5739  230.8819  136.7819  231.0917  136.8139  -58.4227   -0.1909
  2.660  237.4801  137.3250  232.0848  136.9031  232.0795  136.8671  237.1618  139.2970  234.3795  144.6635  234.6047  144.7062  -64.6640   -0.2147
  2.670  241.2989  145.5142  235.6905  144.8625  235.6835  144.8216  240.8945  147.6284  237.7734  153.1486  238.0148  153.2040  -71.3296   -0.2409
  2.680  245.0216  154.3540  239.1991  153.4411  239.1906  153.3947  244.5145  156.6195  241.0162  162.2848  241.2745  162.3552  -78.4145   -0.2697
  2.690  248.5977  163.8985  242.5630  162.6895  242.5531  162.6369  247.9682  166.3237  244.0506  172.1213  244.3264  172.2095  -85.9102   -0.3013
  2.700  251.9651  174.2038  245.7238  172.6602  245.7131  172.6004  251.1907  176.7965  246.8076  182.7080  247.1014  182.8170  -93.8059   -0.3357
  2.710  255.0488  185.3270  248.6111  183.4066  248.6000  183.3387  254.1032  188.0939  249.2044  194.0939  249.5163  194.2272 -102.0897   -0.3733
  2.720  257.7580  197.3249  251.1399  194.9818  251.1293  194.9048  256.6107  200.2707  251.1428  206.3250  251.4727  206.4868 -110.7500   -0.4140
  2.730  259.9839  210.2515  253.2087  207.4367  253.1996  207.3496  258.6003  213.3782  252.5069  219.4420  252.8540  219.6368 -119.7784   -0.4580
  2.740  261.5973  224.1550  254.6971  220.8168  254.6907  220.7185  259.9379  227.4607  253.1610  233.4767  253.5239  233.7096 -129.1730   -0.5054
  2.750  262.4459  239.0734  255.4633  235.1588  255.4614  235.0483  260.4666  242.5512  252.9485  248.4469  253.3248  248.7233 -138.9422   -0.5565
  2.760  262.3525  255.0295  255.3423  250.4855  255.3470  250.3619  260.0046  258.6656  251.6903  264.3510  252.0768  264.6770 -149.1090   -0.6113
  2.770  261.1135  272.0233  254.1446  266.7994  254.1584  266.6621  258.3442  275.7954  249.1856  281.1607  249.5775  281.5424 -159.7172   -0.6700
  2.780  258.4991  290.0236  251.6559  284.0751  251.6820  283.9238  255.2528  293.8988  245.2136  298.8128  245.6047  299.2565 -170.8361   -0.7328
  2.790  254.2557  308.9578  247.6392  302.2497  247.6809  302.0847  250.4756  312.8904  239.5379  317.1997  239.9198  317.7113 -182.5663   -0.7999
  2.800  248.1112  328.7000  241.8384  321.2121  241.8998  321.0345  243.7419  332.6299  231.9138  336.1595  232.2763  336.7442 -195.0443   -0.8715
  2.810  239.7844  349.0590  233.9875  340.7917  234.0728  340.6034  234.7755  352.9100  222.1002  355.4673  222.4310  356.1287 -208.4450   -0.9481
  2.820  228.9997  369.7666  223.8223  360.7470  223.9360  360.5514  223.3104  373.4462  209.8757  374.8271  210.1602  375.5668 -222.9816   -1.0301
  2.830  215.5084  390.4690  211.0999  380.7573  211.2458  380.5591  209.1122  393.8689  195.0587  393.8689  195.2807  394.6856 -238.9011   -1.1179
  2.840  199.1151  410.7232  195.6214  400.4172  195.8030  400.2227  192.0050  413.7224  177.5323  412.1515  177.6743  413.0402 -256.4738   -1.2121
  2.850  179.7090  430.0029  177.2619  419.2406  177.4811  419.0574  171.9026  432.4718  157.2700  429.1738  157.3145  430.1250 -275.9767   -1.3136
  2.860  157.2981  447.7151  156.0013  436.6734  156.2582  436.5104  148.8401  449.5222  134.3612  444.3957  134.2917  445.3953 -297.6688   -1.4229
  2.870  132.0393  463.2326  131.9542  452.1204  132.2464  451.9870  123.0024  464.2523  109.0304  457.2708  108.8330  458.2999 -321.7601   -1.5412
  2.880  104.2592  475.9395  105.3924  464.9851  105.7149  464.8907   94.7417  476.0598   81.6461  467.2877   81.3111  468.3233 -348.3746   -1.6692
  2.890   74.4578  485.2888   76.7531  474.7212   77.0979  474.6741   64.5782  484.4173   52.7153  474.0161   52.2384  475.0324 -377.5101   -1.8079
  2.900   43.2899  490.8633   46.6272  480.8899   46.9840  480.8964   33.1791  488.9304   22.8596  477.1533   22.2430  478.1231 -408.9999   -1.9583
  2.910   11.5202  492.4304   15.7244  483.2132   16.0809  483.2767    1.3137  489.3878   -7.2254  476.5609   -7.9731  477.4581 -442.4796   -2.1209
  2.920  -20.0437  489.9775  -15.1837  481.6136  -14.8408  481.7343  -30.2112  485.7934  -36.8259  472.2871  -37.6901  473.0883 -477.3675   -2.2963
  2.930  -50.6317  483.7204  -45.3357  476.2302  -45.0196  476.4047  -60.6270  478.3706  -65.2720  464.5665  -66.2332  465.2525 -512.8608   -2.4848
  2.940  -79.5930  474.0763  -74.0570  467.4046  -73.7798  467.6262  -89.2784  467.5373  -91.9982  453.7966  -93.0338  454.3536 -547.9553   -2.6861
  2.950 -106.4639  461.6050 -100.8281  455.6365 -100.6002  455.8952 -115.6835  453.8504 -116.5932  440.4918 -117.6794  440.9114 -581.4878   -2.8998
  2.960 -131.0068  446.9200 -125.3315  441.5106 -125.1606  441.7938 -139.5691  437.9285 -138.8304  425.2186 -139.9434  425.4972 -612.2036   -3.1248
  2.970 -153.2077  430.5841 -147.4646  425.6050 -147.3550  425.8982 -160.8692  420.3629 -158.6692  408.5192 -159.7860  408.6571 -638.8415   -3.3596
  2.980 -173.2156  413.0091 -167.3045  408.3961 -167.2563  408.6834 -179.6797  401.6333 -176.2203  390.8356 -177.3188  390.8364 -660.2328   -3.6022
  2.990 -191.2233  394.3963 -185.0201  390.1887 -185.0280  390.4540 -196.1682  382.0556 -191.6688  372.4559 -192.7275  372.3262 -675.4017   -3.8504
  3.000 -207.3183  374.7683 -200.7466  371.1120 -200.7995  371.3418 -210.4620  361.7957 -205.1710  353.5157 -206.1686  353.2661 -683.6575   -4.1017
  3.010 -221.3838  354.1090 -214.4800  351.2085 -214.5626  351.3951 -222.5692  340.9617 -216.7690  334.0725 -217.6860  333.7191 -684.6674   -4.3533
  3.020 -233.1376  332.5473 -226.0692  330.5803 -226.1652  330.7234 -232.3945  319.7283 -226.3851  314.2248 -227.2065  313.7889 -678.5009   -4.6026
  3.030 -242.3019  310.4501 -235.3226  309.4925 -235.4193  309.5983 -239.8462  298.4047 -233.9083  294.1950 -234.6262  293.7015 -665.6413   -4.8472
  3.040 -248.7805  288.3553 -242.1523  288.3573 -242.2425  288.4351 -244.9507  277.3932 -239.3080  274.3163 -239.9227  273.7896 -646.9613   -5.0850
  3.050 -252.7199  266.8104 -246.6485  267.6257 -246.7309  267.6846 -247.8922  257.0858 -242.6929  254.9465 -243.2112  254.4073 -623.6679   -5.3142
  3.060 -254.4495  246.2404 -249.0582  247.6767 -249.1349  247.7230 -248.9702  237.7778 -244.2918  236.3807 -244.7241  235.8446 -597.2224   -5.5336
  3.070 -254.3762  226.8994 -249.7113  228.7620 -249.7860  228.7989 -248.5281  219.6385 -244.3946  218.8093 -244.7524  218.2869 -569.2458   -5.7428
  3.080 -252.8993  208.8895 -248.9504  211.0066 -249.0267  211.0349 -246.8954  202.7261 -243.2964  202.3198 -243.5910  201.8177 -541.4198   -5.9418
  3.090 -250.3652  192.2046 -247.0864  194.4370 -247.1672  194.4555 -244.3573  187.0202 -241.2629  186.9207 -241.5045  186.4428 -515.3932   -6.1312
  3.100 -247.0532  176.7728 -244.3799  179.0141 -244.4672  179.0205 -241.1456  172.4514 -238.5167  172.5678 -238.7143  172.1158 -492.7018   -6.3123
  3.110 -243.1779  162.4878 -241.0382  164.6603 -241.1330  164.6514 -237.4406  158.9245 -235.2350  159.1859 -235.3964  158.7604 -474.7044   -6.4867
  3.120 -238.8980  149.2283 -237.2196  151.2778 -237.3220  151.2500 -233.3781  146.3327 -231.5537  146.6840 -231.6856  146.2845 -462.5376   -6.6567
  3.130 -234.3259  136.8701 -233.0397  138.7610 -233.1487  138.7101 -229.0563  134.5662 -227.5725  134.9643 -227.6807  134.5896 -457.0856   -6.8247
  3.140 -229.5357  125.2927 -228.5773  127.0036 -228.6908  126.9250 -224.5414  123.5169 -223.3597  123.9280 -223.4492  123.5762 -458.9630   -6.9934
  3.150 -224.5690  114.3823 -223.8798  115.9038 -223.9945  115.7926 -219.8725  113.0817 -218.9564  113.4793 -219.0312  113.1477 -468.5061   -7.1655
  3.160 -219.4392  104.0351 -218.9663  105.3671 -219.0771  105.2182 -215.0634  103.1637 -214.3783  103.5271 -214.4415  103.2127 -485.7729   -7.3440
  3.170 -214.1337   94.1585 -213.8304   95.3096 -213.9301   95.1180 -210.1046   93.6743 -209.6171   93.9877 -209.6705   93.6872 -510.5522   -7.5317
  3.180 -208.6146   84.6747 -208.4410   85.6611 -208.5197   85.4226 -204.9624   84.5351 -204.6400   84.7874 -204.6842   84.4974 -542.3872   -7.7310
  3.190 -202.8181   75.5240 -202.7429   76.3698 -202.7876   76.0816 -199.5775   75.6822 -199.3878   75.8667 -199.4218   75.5842 -580.6190   -7.9444
  3.200 -196.6538   66.6727 -196.6567   67.4083 -196.6508   67.0709 -193.8621   67.0726 -193.7723   67.1880 -193.7939   66.9110 -624.4522   -8.1738
  3.210 -190.0041   58.1251 -190.0797   58.7851 -190.0034   58.4041 -187.6975   58.6966 -187.6745   58.7485 -187.6804   58.4766 -673.0394   -8.4212
  3.220 -182.7292   49.9421 -182.8911   50.5601 -182.7226   50.1492 -180.9359   50.5970 -180.9471   50.6012 -180.9339   50.3363 -725.5665   -8.6878
  3.230 -174.6839   42.2667 -174.9675   42.8654 -174.6858   42.4493 -173.4132   42.8982 -173.4299   42.8839 -173.3955   42.6302 -781.3140   -8.9750
  3.240 -165.7565   35.3493 -166.2159   35.9264 -165.8074   35.5430 -164.9853   35.8376 -164.9915   35.8508 -164.9362   35.6141 -839.6550   -9.2835
  3.250 -155.9388   29.5537 -156.6322   30.0668 -156.0994   29.7650 -155.6001   29.7825 -155.6060   29.8827 -155.5340   29.6684 -899.9628   -9.6142
  3.260 -145.4156   25.3101 -146.3775   25.6722 -145.7477   25.5037 -145.3989   25.1934 -145.4560   25.4376 -145.3744   25.2479 -961.4152   -9.9676
  3.270 -134.6260   22.9917 -135.8354   23.0897 -135.1639   23.0921 -134.7995   22.4980 -135.0012   22.9087 -134.9176   22.7413 *********  -10.3434
  3.280 -124.2236   22.7420 -125.5919   22.4789 -124.9511   22.6581 -124.4710   21.8963 -124.9250   22.4313 -124.8437   22.2787 *********  -10.7410
  3.290 -114.9058   24.3551 -116.3003   23.6923 -115.7564   24.0149 -115.1533   23.2128 -115.9315   23.7632 -115.8503   23.6166 *********  -11.1584
  3.300 -107.1931   27.3060 -108.4829   26.2754 -108.0726   26.6812 -107.4056   25.9188 -108.5076   26.3481 -108.4172   26.2014 *********  -11.5925
  3.310 -101.2888   30.9148 -102.3825   29.5982 -102.1050   30.0245 -101.4471   29.3183 -102.8032   29.5129 -102.6890   29.3690 *********  -12.0384
  3.320  -97.0732   34.5409  -97.9306   33.0361  -97.7578   33.4395  -97.1595   32.7645  -98.6630   32.6625  -98.5130   32.5370 *********  -12.4896
  3.330  -94.1915   37.7263  -94.8144   36.1209  -94.7110   36.4851  -94.1958   35.8040  -95.7366   35.3961  -95.5523   35.3147 *********  -12.9388
  3.340  -92.1930   40.2763  -92.6089   38.6344  -92.5501   38.9624  -92.1260   38.2371  -93.6117   37.5531  -93.4144   37.5378 *********  -13.3782
  3.350  -90.7060   42.2430  -90.9514   40.6028  -90.9270   40.9012  -90.5905   40.0888  -91.9555   39.1813  -91.7783   39.2355 *********  -13.8041
  3.360  -89.5509   43.7804  -89.6577   42.1601  -89.6645   42.4295  -89.3924   41.4840  -90.5983   40.4138  -90.4685   40.5200 *********  -14.2263
  3.370  -88.6926   44.9858  -88.6842   43.3943  -88.7161   43.6299  -88.4627   42.5162  -89.4933   41.3416  -89.4219   41.4733 *********  -14.6778
  3.380  -88.1208   45.8646  -88.0170   44.3072  -88.0601   44.5067  -87.7675   43.2118  -88.6221   41.9847  -88.6057   42.1182 *********  -15.1912
  3.390  -87.7861   46.3826  -87.6012   44.8516  -87.6424   45.0303  -87.2526   43.5632  -87.9420   42.3263  -87.9696   42.4459 *********  -15.7393
  3.400  -87.6009   46.5199  -87.3180   45.0160  -87.3755   45.1850  -86.8363   43.5761  -87.3761   42.3628  -87.4344   42.4605 *********  -16.2299
  3.410  -87.4723   46.2894  -87.0948   44.8488  -87.1702   44.9880  -86.4504   43.2833  -86.8600   42.1216  -86.9373   42.1957 -996.3185  -16.5960
  3.420  -87.3159   45.7279  -86.8711   44.3687  -86.9490   44.4747  -86.0355   42.7193  -86.3387   41.6294  -86.4261   41.6814 -692.0364  -16.8503
  3.430  -87.0657   44.8925  -86.5782   43.6193  -86.6496   43.6978  -85.5412   41.9335  -85.7625   40.9274  -85.8538   40.9603 -516.6252  -17.0402
  3.440  -86.6796   43.8494  -86.1705   42.6609  -86.2314   42.7183  -84.9365   40.9818  -85.0989   40.0647  -85.1899   40.0821 -429.6186  -17.1980
  3.450  -86.1382   42.6636  -85.6251   41.5549  -85.6742   41.5966  -84.2083   39.9178  -84.3315   39.0898  -84.4199   39.0952 -378.2064  -17.3370
  3.460  -85.4395   41.3927  -84.9367   40.3563  -84.9740   40.3866  -83.3563   38.7883  -83.4569   38.0462  -83.5415   38.0424 -340.0021  -17.4620
  3.470  -84.5930   40.0839  -84.1115   39.1109  -84.1377   39.1331  -82.3894   37.6313  -82.4806   36.9696  -82.5608   36.9593 -308.8903  -17.5755
  3.480  -83.6153   38.7736  -83.1631   37.8547  -83.1793   37.8711  -81.3215   36.4760  -81.4130   35.8885  -81.4889   35.8735 -282.8251  -17.6794
  3.490  -82.5257   37.4882  -82.1083   36.6145  -82.1155   36.6269  -80.1682   35.3436  -80.2673   34.8238  -80.3392   34.8056 -260.5640  -17.7752
  3.500  -81.3439   36.2462  -80.9648   35.4091  -80.9643   35.4186  -78.9456   34.2485  -79.0573   33.7904  -79.1256   33.7702 -241.2098  -17.8638
  3.510  -80.0887   35.0592  -79.7500   34.2511  -79.7426   34.2586  -77.6685   33.2003  -77.7964   32.7983  -77.8614   32.7769 -224.1391  -17.9462
  3.520  -78.7768   33.9342  -78.4795   33.1485  -78.4660   33.1546  -76.3502   32.2045  -76.4965   31.8540  -76.5587   31.8320 -208.9439  -18.0230
  3.530  -77.4227   32.8748  -77.1670   32.1055  -77.1481   32.1106  -75.0023   31.2640  -75.1684   30.9609  -75.2281   30.9388 -195.3694  -18.0948
  3.540  -76.0386   31.8820  -75.8243   31.1241  -75.8007   31.1284  -73.6345   30.3796  -73.8212   30.1208  -73.8788   30.0989 -183.2605  -18.1621
  3.550  -74.6348   30.9553  -74.4616   30.2044  -74.4337   30.2081  -72.2548   29.5508  -72.4626   29.3337  -72.5185   29.3122 -172.5204  -18.2255
  3.560  -73.2198   30.0929  -73.0871   29.3452  -73.0553   29.3484  -70.8700   28.7765  -71.0992   28.5991  -71.1535   28.5782 -163.0824  -18.2855
  3.570  -71.8005   29.2928  -71.7077   28.5448  -71.6722   28.5477  -69.4854   28.0547  -69.7361   27.9155  -69.7891   27.8954 -154.8922  -18.3424
  3.580  -70.3824   28.5522  -70.3290   27.8010  -70.2901   27.8035  -68.1055   27.3833  -68.3778   27.2814  -68.4297   27.2620 -147.8983  -18.3967
  3.590  -68.9701   27.8683  -68.9555   27.1112  -68.9134   27.1135  -66.7338   26.7600  -67.0278   26.6948  -67.0787   26.6763 -142.0464  -18.4489
  3.600  -67.5670   27.2384  -67.5909   26.4729  -67.5457   26.4749  -65.3729   26.1825  -65.6888   26.1537  -65.7390   26.1361 -137.2784  -18.4994
  3.610  -66.1760   26.6597  -66.2382   25.8834  -66.1900   25.8852  -64.0251   25.6486  -64.3633   25.6562  -64.4128   25.6395 -133.5324  -18.5485
  3.620  -64.7994   26.1296  -64.8995   25.3401  -64.8485   25.3418  -62.6920   25.1558  -63.0528   25.2002  -63.1018   25.1845 -130.7439  -18.5965
  3.630  -63.4387   25.6455  -63.5769   24.8406  -63.5229   24.8422  -61.3748   24.7022  -61.7589   24.7839  -61.8074   24.7691 -128.8477  -18.6439
  3.640  -62.0954   25.2052  -62.2715   24.3826  -62.2148   24.3840  -60.0744   24.2857  -60.4826   24.4054  -60.5307   24.3915 -127.7790  -18.6908
  3.650  -60.7703   24.8063  -60.9844   23.9637  -60.9249   23.9651  -58.7915   23.9044  -59.2246   24.0631  -59.2724   24.0501 -127.4762  -18.7377
  3.660  -59.4641   24.4470  -59.7164   23.5819  -59.6542   23.5834  -57.5263   23.5566  -57.9855   23.7553  -58.0331   23.7433 -127.8814  -18.7847
  3.670  -58.1773   24.1255  -58.4680   23.2353  -58.4029   23.2368  -56.2791   23.2407  -56.7656   23.4806  -56.8130   23.4695 -128.9421  -18.8320
  3.680  -56.9100   23.8399  -57.2394   22.9221  -57.1715   22.9237  -55.0498   22.9551  -55.5652   23.2376  -55.6125   23.2274 -130.6119  -18.8800
  3.690  -55.6625   23.5890  -56.0306   22.6405  -55.9599   22.6423  -53.8382   22.6986  -54.3844   23.0251  -54.4315   23.0157 -132.8511  -18.9289
  3.700  -54.4347   23.3713  -54.8418   22.3891  -54.7682   22.3912  -52.6442   22.4698  -53.2230   22.8420  -53.2701   22.8334 -135.6271  -18.9787
  3.710  -53.2264   23.1856  -53.6726   22.1664  -53.5961   22.1689  -51.4672   22.2677  -52.0810   22.6873  -52.1280   22.6795 -138.9139  -19.0298
  3.720  -52.0376   23.0310  -52.5228   21.9713  -52.4434   21.9742  -50.3069   22.0914  -50.9582   22.5601  -51.0052   22.5532 -142.6928  -19.0822
  3.730  -50.8679   22.9067  -51.3921   21.8026  -51.3097   21.8060  -49.1627   21.9400  -49.8544   22.4597  -49.9013   22.4535 -146.9512  -19.1362
  3.740  -49.7171   22.8117  -50.2799   21.6593  -50.1945   21.6634  -48.0340   21.8128  -48.7692   22.3855  -48.8161   22.3801 -151.6825  -19.1919
  3.750  -48.5849   22.7457  -49.1858   21.5405  -49.0973   21.5454  -46.9201   21.7092  -47.7025   22.3370  -47.7494   22.3323 -156.8853  -19.2496
  3.760  -47.4711   22.7082  -48.1093   21.4456  -48.0176   21.4513  -45.8203   21.6289  -46.6539   22.3137  -46.7007   22.3097 -162.5630  -19.3093
  3.770  -46.3753   22.6988  -47.0498   21.3739  -46.9548   21.3806  -44.7339   21.5714  -45.6232   22.3155  -45.6699   22.3121 -168.7230  -19.3713
  3.780  -45.2973   22.7174  -46.0065   21.3251  -45.9083   21.3329  -43.6603   21.5367  -44.6100   22.3421  -44.6567   22.3394 -175.3758  -19.4358
  3.790  -44.2371   22.7639  -44.9790   21.2986  -44.8774   21.3077  -42.5985   21.5247  -43.6143   22.3935  -43.6608   22.3914 -182.5347  -19.5029
  3.800  -43.1944   22.8383  -43.9665   21.2944  -43.8614   21.3049  -41.5479   21.5354  -42.6357   22.4697  -42.6821   22.4682 -190.2146  -19.5728
  3.810  -42.1692   22.9408  -42.9684   21.3125  -42.8598   21.3245  -40.5076   21.5692  -41.6742   22.5709  -41.7205   22.5700 -198.4317  -19.6457
  3.820  -41.1616   23.0716  -41.9840   21.3528  -41.8718   21.3666  -39.4770   21.6265  -40.7298   22.6973  -40.7758   22.6970 -207.2026  -19.7218
  3.830  -40.1717   23.2311  -41.0128   21.4156  -40.8969   21.4313  -38.4553   21.7077  -39.8025   22.8493  -39.8482   22.8494 -216.5440  -19.8014
  3.840  -39.1997   23.4195  -40.0541   21.5013  -39.9344   21.5192  -37.4418   21.8136  -38.8924   23.0272  -38.9377   23.0278 -226.4713  -19.8846
  3.850  -38.2461   23.6372  -39.1074   21.6104  -38.9837   21.6307  -36.4359   21.9451  -37.9997   23.2314  -38.0446   23.2325 -236.9988  -19.9717
  3.860  -37.3113   23.8847  -38.1722   21.7436  -38.0445   21.7665  -35.4369   22.1032  -37.1248   23.4625  -37.1691   23.4641 -248.1383  -20.0629
  3.870  -36.3958   24.1623  -37.2479   21.9018  -37.1161   21.9277  -34.4443   22.2891  -36.2681   23.7210  -36.3117   23.7230 -259.8989  -20.1584
  3.880  -35.5003   24.4704  -36.3343   22.0861  -36.1983   22.1151  -33.4576   22.5044  -35.4301   24.0074  -35.4729   24.0099 -272.2862  -20.2585
  3.890  -34.6256   24.8094  -35.4311   22.2977  -35.2908   22.3302  -32.4765   22.7505  -34.6114   24.3224  -34.6532   24.3253 -285.3016  -20.3634
  3.900  -33.7722   25.1795  -34.5381   22.5379  -34.3934   22.5744  -31.5007   23.0295  -33.8128   24.6665  -33.8533   24.6699 -298.9416  -20.4732
  3.910  -32.9411   25.5812  -33.6554   22.8086  -33.5062   22.8495  -30.5301   23.3433  -33.0348   25.0404  -33.0739   25.0443 -313.1971  -20.5883
  3.920  -32.1327   26.0147  -32.7831   23.1116  -32.6293   23.1573  -29.5648   23.6944  -32.2785   25.4448  -32.3158   25.4493 -328.0532  -20.7089
  3.930  -31.3478   26.4803  -31.9218   23.4491  -31.7633   23.5000  -28.6050   24.0853  -31.5445   25.8805  -31.5797   25.8857 -343.4880  -20.8351
  3.940  -30.5869   26.9785  -31.0720   23.8233  -30.9089   23.8801  -27.6512   24.5190  -30.8338   26.3483  -30.8666   26.3545 -359.4724  -20.9672
  3.950  -29.8502   27.5102  -30.2350   24.2370  -30.0671   24.3003  -26.7043   24.9986  -30.1473   26.8495  -30.1773   26.8569 -375.9695  -21.1054
  3.960  -29.1381   28.0764  -29.4121   24.6930  -29.2395   24.7635  -25.7653   25.5278  -29.4862   27.3855  -29.5129   27.3944 -392.9342  -21.2498
  3.970  -28.4509   28.6788  -28.6052   25.1945  -28.4280   25.2730  -24.8360   26.1103  -28.8516   27.9579  -28.8747   27.9689 -410.3131  -21.4006
  3.980  -27.7892   29.3195  -27.8170   25.7448  -27.6353   25.8322  -23.9183   26.7505  -28.2452   28.5691  -28.2642   28.5827 -428.0437  -21.5579
  3.990  -27.1536   30.0017  -27.0506   26.3474  -26.8646   26.4446  -23.0149   27.4529  -27.6693   29.2217  -27.6838   29.2387 -446.0550  -21.7218
  4.000  -26.5457   30.7291  -26.3102   27.0060  -26.1202   27.1141  -22.1293   28.2224  -27.1266   29.9189  -27.1364   29.9402 -464.2669  -21.8924
  4.010  -25.9679   31.5064  -25.6006   27.7241  -25.4072   27.8443  -21.2658   29.0642  -26.6213   30.6641  -26.6260   30.6908 -482.5910  -22.0697
  4.020  -25.4242   32.3388  -24.9279   28.5054  -24.7318   28.6389  -20.4297   29.9840  -26.1587   31.4611  -26.1583   31.4944 -500.9304  -22.2538
  4.030  -24.9199   33.2322  -24.2994   29.3530  -24.1014   29.5012  -19.6276   30.9875  -25.7456   32.3135  -25.7404   32.3549 -519.1807  -22.4446
  4.040  -24.4628   34.1923  -23.7237   30.2698  -23.5250   30.4339  -18.8675   32.0805  -25.3910   33.2244  -25.3813   33.2754 -537.2304  -22.6421
  4.050  -24.0629   35.2245  -23.2109   31.2575  -23.0129   31.4390  -18.1590   33.2688  -25.1057   34.1961  -25.0922   34.2584 -554.9619  -22.8460
  4.060  -23.7327   36.3335  -22.7724   32.3169  -22.5770   32.5172  -17.5140   34.5578  -24.9025   35.2291  -24.8864   35.3042 -572.2525  -23.0563
  4.070  -23.4875   37.5218  -22.4212   33.4472  -22.2307   33.6674  -16.9461   35.9524  -24.7963   36.3216  -24.7792   36.4112 -588.9756  -23.2727
  4.080  -23.3452   38.7897  -22.1716   34.6452  -21.9886   34.8865  -16.4719   37.4564  -24.8037   37.4687  -24.7876   37.5742 -605.0024  -23.4951
  4.090  -23.3259   40.1341  -22.0390   35.9055  -21.8668   36.1684  -16.1103   39.0718  -24.9422   38.6617  -24.9296   38.7841 -620.2029  -23.7230
  4.100  -23.4516   41.5474  -22.0394   37.2191  -21.8815   37.5040  -15.8834   40.7980  -25.2297   39.8872  -25.2234   40.0273 -634.4478  -23.9562
  4.110  -23.7452   43.0170  -22.1888   38.5738  -22.0492   38.8802  -15.8161   42.6315  -25.6831   41.1267  -25.6864   41.2845 -647.6103  -24.1941
  4.120  -24.2296   44.5243  -22.5025   39.9530  -22.3855   40.2798  -15.9358   44.5637  -26.3170   42.3564  -26.3333   42.5312 -659.5678  -24.4365
  4.130  -24.9258   46.0437  -22.9939   41.3363  -22.9040   41.6812  -16.2723   46.5806  -27.1419   43.5469  -27.1746   43.7373 -670.2037  -24.6828
  4.140  -25.8514   47.5433  -23.6738   42.6989  -23.6152   43.0587  -16.8562   48.6606  -28.1625   44.6643  -28.2148   44.8679 -679.4092  -24.9325
  4.150  -27.0181   48.9846  -24.5485   44.0124  -24.5252   44.3828  -17.7179   50.7740  -29.3757   45.6715  -29.4503   45.8852 -687.0852  -25.1850
  4.160  -28.4299   50.3235  -25.6194   45.2453  -25.6346   45.6209  -18.8848   52.8810  -30.7694   46.5302  -30.8683   46.7501 -693.1437  -25.4397
  4.170  -30.0810   51.5127  -26.8817   46.3645  -26.9374   46.7387  -20.3787   54.9320  -32.3218   47.2035  -32.4458   47.4253 -697.5098  -25.6961
  4.180  -31.9540   52.5038  -28.3235   47.3359  -28.4205   47.7017  -22.2122   56.8676  -34.0013   47.6592  -34.1505   47.8784 -700.1229  -25.9534
  4.190  -34.0195   53.2511  -29.9254   48.1270  -30.0627   48.4768  -24.3844   58.6205  -35.7683   47.8723  -35.9413   48.0847 -700.9377  -26.2109
  4.200  -36.2364   53.7144  -31.6607   48.7079  -31.8355   49.0346  -26.8780   60.1190  -37.5770   47.8282  -37.7716   48.0299 -699.9257  -26.4682
  4.210  -38.5536   53.8631  -33.4955   49.0541  -33.7035   49.3509  -29.6562   61.2920  -39.3792   47.5236  -39.5924   47.7117 -697.0758  -26.7243
  4.220  -40.9127   53.6790  -35.3904   49.1479  -35.6256   49.4094  -32.6623   62.0751  -41.1275   46.9670  -41.3559   47.1393 -692.3948  -26.9788
  4.230  -43.2515   53.1579  -37.3014   48.9803  -37.5568   49.2026  -35.8214   62.4181  -42.7791   46.1777  -43.0188   46.3332 -685.9074  -27.2308
  4.240  -45.5087   52.3105  -39.1832   48.5522  -39.4512   48.7333  -39.0448   62.2902  -44.2980   45.1837  -44.5455   45.3222 -677.6564  -27.4799
  4.250  -47.6274   51.1615  -40.9914   47.8749  -41.2643   48.0145  -42.2372   61.6852  -45.6572   44.0188  -45.9094   44.1410 -667.7026  -27.7253
  4.260  -49.5593   49.7475  -42.6856   46.9692  -42.9562   47.0689  -45.3046   60.6217  -46.8395   42.7197  -47.0936   42.8268 -656.1234  -27.9664
  4.270  -51.2674   48.1140  -44.2320   45.8641  -44.4941   45.9269  -48.1627   59.1420  -47.8363   41.3231  -48.0902   41.4168 -643.0126  -28.2027
  4.280  -52.7271   46.3111  -45.6052   44.5944  -45.8538   44.6241  -50.7431   57.3064  -48.6474   39.8638  -48.8995   39.9459 -628.4786  -28.4336
  4.290  -53.9267   44.3905  -46.7892   43.1976  -47.0204   43.1988  -52.9975   55.1873  -49.2787   38.3728  -49.5280   38.4452 -612.6432  -28.6588
  4.300  -54.8662   42.4012  -47.7769   41.7114  -47.9884   41.6890  -54.8987   52.8615  -49.7411   36.8764  -49.9871   36.9409 -595.6400  -28.8777
  4.310  -55.5552   40.3875  -48.5696   40.1716  -48.7600   40.1302  -56.4391   50.4040  -50.0482   35.3964  -50.2907   35.4546 -577.6122  -29.0899
  4.320  -56.0106   38.3872  -49.1751   38.6097  -49.3440   38.5537  -57.6280   47.8830  -50.2156   33.9495  -50.4548   34.0029 -558.7108  -29.2953
  4.330  -56.2542   36.4307  -49.6058   37.0527  -49.7538   36.9859  -58.4868   45.3571  -50.2593   32.5484  -50.4955   32.5981 -539.0926  -29.4934
  4.340  -56.3103   34.5412  -49.8776   35.5222  -50.0055   35.4477  -59.0452   42.8734  -50.1951   31.2019  -50.4286   31.2490 -518.9173  -29.6841
  4.350  -56.2039   32.7352  -50.0076   34.0346  -50.1167   33.9553  -59.3374   40.4680  -50.0379   29.9158  -50.2694   29.9611 -498.3463  -29.8672
  4.360  -55.9594   31.0235  -50.0134   32.6021  -50.1052   32.5200  -59.3991   38.1665  -49.8016   28.6934  -50.0314   28.7374 -477.5396  -30.0427
  4.370  -55.5997   29.4120  -49.9121   31.2324  -49.9881   31.1493  -59.2651   35.9857  -49.4985   27.5358  -49.7273   27.5792 -456.6543  -30.2105
  4.380  -55.1455   27.9029  -49.7196   29.9306  -49.7814   29.8476  -58.9681   33.9352  -49.1398   26.4431  -49.3681   26.4861 -435.8423  -30.3707
  4.390  -54.6151   26.4956  -49.4505   28.6986  -49.4995   28.6167  -58.5375   32.0189  -48.7352   25.4139  -48.9634   25.4568 -415.2485  -30.5233
  4.400  -54.0245   25.1873  -49.1176   27.5370  -49.1552   27.4566  -57.9994   30.2363  -48.2931   24.4462  -48.5217   24.4891 -395.0091  -30.6685
  4.410  -53.3873   23.9741  -48.7323   26.4444  -48.7597   26.3661  -57.3764   28.5841  -47.8209   23.5375  -48.0503   23.5807 -375.2506  -30.8064
  4.420  -52.7150   22.8508  -48.3045   25.4189  -48.3227   25.3428  -56.6876   27.0569  -47.3246   22.6849  -47.5552   22.7285 -356.0879  -30.9372
  4.430  -52.0173   21.8122  -47.8426   24.4576  -47.8525   24.3838  -55.9492   25.6480  -46.8097   21.8856  -47.0418   21.9295 -337.6240  -31.0613
  4.440  -51.3020   20.8525  -47.3536   23.5573  -47.3561   23.4858  -55.1746   24.3500  -46.2806   21.1364  -46.5146   21.1808 -319.9488  -31.1789
  4.450  -50.5758   19.9662  -46.8437   22.7148  -46.8394   22.6455  -54.3748   23.1551  -45.7410   20.4344  -45.9771   20.4792 -303.1392  -31.2903
  4.460  -49.8440   19.1477  -46.3179   21.9265  -46.3075   21.8593  -53.5589   22.0557  -45.1941   19.7766  -45.4327   19.8218 -287.2586  -31.3958
  4.470  -49.1107   18.3918  -45.7804   21.1890  -45.7644   21.1238  -52.7340   21.0444  -44.6426   19.1601  -44.8838   19.2058 -272.3570  -31.4959
  4.480  -48.3794   17.6937  -45.2348   20.4991  -45.2136   20.4356  -51.9060   20.1141  -44.0886   18.5824  -44.3328   18.6285 -258.4715  -31.5909
  4.490  -47.6529   17.0485  -44.6840   19.8536  -44.6579   19.7916  -51.0795   19.2581  -43.5340   18.0409  -43.7813   18.0874 -245.6267  -31.6812
  4.500  -46.9332   16.4522  -44.1305   19.2494  -44.0997   19.1888  -50.2583   18.4701  -42.9803   17.5331  -43.2310   17.5801 -233.8353  -31.7671
  4.510  -46.2220   15.9008  -43.5761   18.6837  -43.5410   18.6244  -49.4450   17.7445  -42.4287   17.0570  -42.6829   17.1044 -223.0992  -31.8491
  4.520  -45.5204   15.3906  -43.0225   18.1540  -42.9832   18.0957  -48.6419   17.0760  -41.8802   16.6105  -42.1382   16.6582 -213.4104  -31.9275
  4.530  -44.8295   14.9184  -42.4711   17.6578  -42.4276   17.6003  -47.8506   16.4597  -41.3356   16.1915  -41.5976   16.2396 -204.7519  -32.0028
  4.540  -44.1498   14.4812  -41.9229   17.1927  -41.8754   17.1360  -47.0723   15.8913  -40.7956   15.7985  -41.0618   15.8469 -197.0989  -32.0752
  4.550  -43.4818   14.0762  -41.3788   16.7568  -41.3272   16.7007  -46.3078   15.3667  -40.2606   15.4297  -40.5313   15.4784 -190.4200  -32.1452
  4.560  -42.8258   13.7010  -40.8394   16.3482  -40.7839   16.2924  -45.5577   14.8825  -39.7312   15.0837  -40.0065   15.1326 -184.6784  -32.2131
  4.570  -42.1819   13.3532  -40.3053   15.9649  -40.2459   15.9095  -44.8223   14.4353  -39.2077   14.7590  -39.4877   14.8082 -179.8329  -32.2791
  4.580  -41.5501   13.0309  -39.7769   15.6055  -39.7136   15.5503  -44.1018   14.0221  -38.6901   14.4544  -38.9752   14.5038 -175.8391  -32.3438
  4.590  -40.9304   12.7322  -39.2546   15.2685  -39.1872   15.2133  -43.3962   13.6403  -38.1788   14.1688  -38.4692   14.2183 -172.6502  -32.4072
  4.600  -40.3227   12.4554  -38.7386   14.9524  -38.6671   14.8973  -42.7054   13.2875  -37.6738   13.9010  -37.9697   13.9507 -170.2182  -32.4698
  4.610  -39.7267   12.1989  -38.2290   14.6560  -38.1534   14.6008  -42.0292   12.9614  -37.1752   13.6500  -37.4768   13.6999 -168.4947  -32.5317
  4.620  -39.1423   11.9615  -37.7260   14.3782  -37.6462   14.3228  -41.3673   12.6601  -36.6830   13.4150  -36.9907   13.4649 -167.4314  -32.5932
  4.630  -38.5693   11.7418  -37.2297   14.1178  -37.1455   14.0623  -40.7194   12.3819  -36.1973   13.1951  -36.5112   13.2451 -166.9812  -32.6546
  4.640  -38.0073   11.5388  -36.7400   13.8741  -36.6513   13.8183  -40.0853   12.1251  -35.7179   12.9896  -36.0384   13.0396 -167.0981  -32.7160
  4.650  -37.4561   11.3513  -36.2569   13.6460  -36.1637   13.5899  -39.4646   11.8882  -35.2450   12.7977  -35.5722   12.8476 -167.7385  -32.7776
  4.660  -36.9154   11.1784  -35.7805   13.4327  -35.6826   13.3763  -38.8568   11.6699  -34.7783   12.6188  -35.1126   12.6686 -168.8608  -32.8397
  4.670  -36.3850   11.0194  -35.3108   13.2336  -35.2080   13.1768  -38.2617   11.4690  -34.3178   12.4524  -34.6596   12.5019 -170.4260  -32.9023
  4.680  -35.8645   10.8733  -34.8475   13.0478  -34.7397   12.9907  -37.6788   11.2845  -33.8635   12.2978  -34.2130   12.3471 -172.3978  -32.9657
  4.690  -35.3537   10.7396  -34.3907   12.8749  -34.2777   12.8174  -37.1078   11.1154  -33.4152   12.1545  -33.7728   12.2035 -174.7428  -33.0299
  4.700  -34.8522   10.6176  -33.9404   12.7141  -33.8220   12.6563  -36.5482   10.9607  -32.9728   12.0222  -33.3389   12.0708 -177.4305  -33.0951
  4.710  -34.3599   10.5066  -33.4963   12.5651  -33.3723   12.5069  -35.9997   10.8198  -32.5363   11.9004  -32.9112   11.9484 -180.4330  -33.1614
  4.720  -33.8765   10.4062  -33.0584   12.4273  -32.9286   12.3687  -35.4620   10.6918  -32.1056   11.7888  -32.4897   11.8361 -183.7256  -33.2289
  4.730  -33.4016   10.3160  -32.6266   12.3002  -32.4909   12.2413  -34.9347   10.5761  -31.6805   11.6869  -32.0742   11.7335 -187.2858  -33.2977
  4.740  -32.9351   10.2354  -32.2009   12.1835  -32.0589   12.1242  -34.4175   10.4721  -31.2610   11.5945  -31.6647   11.6402 -191.0942  -33.3680
  4.750  -32.4766   10.1640  -31.7811   12.0768  -31.6326   12.0173  -33.9099   10.3793  -30.8469   11.5113  -31.2612   11.5559 -195.1333  -33.4397
  4.760  -32.0261   10.1016  -31.3671   11.9797  -31.2119   11.9200  -33.4118   10.2972  -30.4382   11.4370  -30.8634   11.4804 -199.3881  -33.5130
  4.770  -31.5833   10.0478  -30.9589   11.8920  -30.7966   11.8321  -32.9228   10.2254  -30.0347   11.3715  -30.4715   11.4133 -203.8455  -33.5879
  4.780  -31.1479   10.0023  -30.5564   11.8134  -30.3867   11.7534  -32.4427   10.1634  -29.6364   11.3144  -30.0852   11.3546 -208.4944  -33.6645
  4.790  -30.7198    9.9649  -30.1594   11.7435  -29.9821   11.6836  -31.9711   10.1110  -29.2432   11.2657  -29.7046   11.3040 -213.3252  -33.7429
  4.800  -30.2988    9.9352  -29.7679   11.6823  -29.5827   11.6224  -31.5078   10.0678  -28.8549   11.2251  -29.3295   11.2612 -218.3298  -33.8231
  4.810  -29.8847    9.9132  -29.3819   11.6294  -29.1883   11.5697  -31.0526   10.0335  -28.4717   11.1925  -28.9601   11.2261 -223.5015  -33.9053
  4.820  -29.4774    9.8985  -29.0012   11.5847  -28.7990   11.5253  -30.6053   10.0078  -28.0932   11.1679  -28.5961   11.1986 -228.8344  -33.9893
  4.830  -29.0767    9.8911  -28.6258   11.5479  -28.4145   11.4891  -30.1656    9.9907  -27.7196   11.1510  -28.2376   11.1785 -234.3237  -34.0755
  4.840  -28.6825    9.8907  -28.2557   11.5190  -28.0349   11.4608  -29.7333    9.9818  -27.3507   11.1418  -27.8847   11.1657 -239.9653  -34.1636
  4.850  -28.2946    9.8972  -27.8907   11.4978  -27.6600   11.4405  -29.3082    9.9809  -26.9864   11.1402  -27.5371   11.1600 -245.7554  -34.2540
  4.860  -27.9129    9.9106  -27.5308   11.4842  -27.2897   11.4279  -28.8902    9.9881  -26.6268   11.1462  -27.1950   11.1614 -251.6909  -34.3465
  4.870  -27.5373    9.9307  -27.1760   11.4781  -26.9241   11.4230  -28.4791   10.0030  -26.2718   11.1597  -26.8584   11.1697 -257.7686  -34.4412
  4.880  -27.1676    9.9573  -26.8263   11.4793  -26.5630   11.4258  -28.0748   10.0257  -25.9214   11.1807  -26.5272   11.1848 -263.9854  -34.5382
  4.890  -26.8038    9.9905  -26.4816   11.4878  -26.2064   11.4362  -27.6771   10.0560  -25.5755   11.2093  -26.2015   11.2067 -270.3379  -34.6375
  4.900  -26.4458   10.0302  -26.1419   11.5035  -25.8541   11.4541  -27.2858   10.0939  -25.2340   11.2453  -25.8813   11.2353 -276.8225  -34.7393
  4.910  -26.0935   10.0763  -25.8071   11.5264  -25.5062   11.4795  -26.9009   10.1394  -24.8971   11.2888  -25.5666   11.2705 -283.4352  -34.8434
  4.920  -25.7468   10.1287  -25.4772   11.5563  -25.1627   11.5125  -26.5223   10.1923  -24.5646   11.3399  -25.2575   11.3122 -290.1712  -34.9501
  4.930  -25.4055   10.1874  -25.1523   11.5933  -24.8233   11.5530  -26.1498   10.2528  -24.2366   11.3986  -24.9541   11.3604 -297.0248  -35.0592
  4.940  -25.0697   10.2525  -24.8322   11.6374  -24.4882   11.6012  -25.7833   10.3208  -23.9132   11.4651  -24.6563   11.4150 -303.9896  -35.1709
  4.950  -24.7392   10.3239  -24.5171   11.6886  -24.1571   11.6570  -25.4229   10.3964  -23.5942   11.5393  -24.3643   11.4759 -311.0579  -35.2853
  4.960  -24.4140   10.4017  -24.2068   11.7468  -23.8302   11.7206  -25.0683   10.4796  -23.2797   11.6214  -24.0781   11.5430 -318.2210  -35.4022
  4.970  -24.0939   10.4858  -23.9014   11.8120  -23.5074   11.7920  -24.7196   10.5705  -22.9698   11.7116  -23.7978   11.6164 -325.4685  -35.5218
  4.980  -23.7789   10.5764  -23.6008   11.8844  -23.1886   11.8715  -24.3768   10.6693  -22.6645   11.8099  -23.5234   11.6959 -332.7890  -35.6441
  4.990  -23.4689   10.6736  -23.3051   11.9640  -22.8738   11.9591  -24.0397   10.7761  -22.3639   11.9167  -23.2550   11.7815 -340.1692  -35.7691
  5.000  -23.1638   10.7774  -23.0143   12.0510  -22.5631   12.0552  -23.7083   10.8911  -22.0681   12.0321  -22.9928   11.8732 -347.5945  -35.8968
  5.010  -22.8635   10.8881  -22.7284   12.1453  -22.2563   12.1599  -23.3828   11.0144  -21.7772   12.1564  -22.7368   11.9708 -355.0484  -36.0273
  5.020  -22.5680   11.0059  -22.4474   12.2472  -21.9535   12.2736  -23.0630   11.1464  -21.4912   12.2899  -22.4870   12.0744 -362.5129  -36.1605
  5.030  -22.2772   11.1310  -22.1713   12.3569  -21.6548   12.3966  -22.7490   11.2874  -21.2105   12.4329  -22.2436   12.1839 -369.9682  -36.2965
  5.040  -21.9911   11.2637  -21.9003   12.4746  -21.3603   12.5293  -22.4411   11.4377  -20.9352   12.5859  -22.0066   12.2993 -377.3930  -36.4352
  5.050  -21.7096   11.4044  -21.6343   12.6007  -21.0700   12.6723  -22.1391   11.5977  -20.6656   12.7491  -21.7762   12.4205 -384.7645  -36.5766
  5.060  -21.4328   11.5536  -21.3736   12.7354  -20.7841   12.8260  -21.8435   11.7679  -20.4020   12.9232  -21.5523   12.5475 -392.0582  -36.7207
  5.070  -21.1608   11.7118  -21.1182   12.8791  -20.5029   12.9911  -21.5545   11.9490  -20.1448   13.1087  -21.3351   12.6804 -399.2483  -36.8674
  5.080  -20.8937   11.8798  -20.8685   13.0324  -20.2267   13.1682  -21.2724   12.1413  -19.8947   13.3061  -21.1248   12.8193 -406.3081  -37.0167
  5.090  -20.6318   12.0581  -20.6249   13.1958  -19.9559   13.3582  -20.9978   12.3457  -19.6522   13.5161  -20.9213   12.9640 -413.2095  -37.1686
  5.100  -20.3755   12.2476  -20.3876   13.3697  -19.6912   13.5618  -20.7313   12.5629  -19.4182   13.7392  -20.7248   13.1149 -419.9238  -37.3229
  5.110  -20.1254   12.4492  -20.1574   13.5550  -19.4332   13.7799  -20.4737   12.7936  -19.1937   13.9763  -20.5354   13.2719 -426.4217  -37.4796
  5.120  -19.8822   12.6639  -19.9350   13.7521  -19.1830   14.0135  -20.2262   13.0386  -18.9799   14.2278  -20.3534   13.4353 -432.6738  -37.6386
  5.130  -19.6471   12.8927  -19.7213   13.9618  -18.9417   14.2635  -19.9900   13.2987  -18.7781   14.4945  -20.1790   13.6053 -438.6504  -37.7998
  5.140  -19.4214   13.1365  -19.5176   14.1848  -18.7108   14.5309  -19.7668   13.5744  -18.5902   14.7767  -20.0124   13.7822 -444.3224  -37.9631
  5.150  -19.2068   13.3963  -19.3252   14.4214  -18.4919   14.8164  -19.5584   13.8665  -18.4180   15.0749  -19.8542   13.9662 -449.6611  -38.1283
  5.160  -19.0054   13.6726  -19.1459   14.6722  -18.2872   15.1210  -19.3671   14.1752  -18.2639   15.3891  -19.7046   14.1576 -454.6388  -38.2954
  5.170  -18.8196   13.9660  -18.9816   14.9372  -18.0991   15.4451  -19.1954   14.5004  -18.1302   15.7191  -19.5644   14.3569 -459.2290  -38.4642
  5.180  -18.6521   14.2765  -18.8346   15.2163  -17.9302   15.7889  -19.0462   14.8418  -18.0198   16.0642  -19.4344   14.5642 -463.4070  -38.6345
  5.190  -18.5061   14.6035  -18.7071   15.5090  -17.7838   16.1524  -18.9225   15.1984  -17.9355   16.4233  -19.3154   14.7799 -467.1496  -38.8061
  5.200  -18.3847   14.9459  -18.6016   15.8142  -17.6630   16.5350  -18.8273   15.5686  -17.8802   16.7946  -19.2086   15.0041 -470.4361  -38.9790
  5.210  -18.2911   15.3020  -18.5205   16.1304  -17.5715   16.9355  -18.7638   15.9501  -17.8567   17.1758  -19.1152   15.2369 -473.2478  -39.1529
  5.220  -18.2283   15.6689  -18.4661   16.4555  -17.5129   17.3519  -18.7347   16.3398  -17.8676   17.5640  -19.0367   15.4781 -475.5689  -39.3277
  5.230  -18.1988   16.0435  -18.4403   16.7869  -17.4906   17.7818  -18.7423   16.7341  -17.9149   17.9554  -18.9746   15.7273 -477.3865  -39.5031
  5.240  -18.2046   16.4219  -18.4447   17.1217  -17.5081   18.2216  -18.7884   17.1286  -18.0003   18.3460  -18.9307   15.9839 -478.6903  -39.6791
  5.250  -18.2468   16.7996  -18.4802   17.4564  -17.5683   18.6674  -18.8737   17.5187  -18.1246   18.7313  -18.9065   16.2468 -479.4734  -39.8553
  5.260  -18.3257   17.1721  -18.5473   17.7877  -17.6734   19.1142  -18.9983   17.8994  -18.2879   19.1065  -18.9038   16.5147 -479.7321  -40.0316
  5.270  -18.4407   17.5348  -18.6456   18.1120  -17.8250   19.5567  -19.1613   18.2659  -18.4893   19.4670  -18.9240   16.7858 -479.4657  -40.2078
  5.280  -18.5903   17.8836  -18.7744   18.4260  -18.0238   19.9890  -19.3607   18.6135  -18.7274   19.8080  -18.9686   17.0581 -478.6768  -40.3837
  5.290  -18.7725   18.2146  -18.9324   18.7266  -18.2692   20.4051  -19.5940   18.9381  -18.9996   20.1255  -19.0386   17.3292 -477.3710  -40.5591
  5.300  -18.9845   18.5246  -19.1179   19.0109  -18.5600   20.7991  -19.8580   19.2361  -19.3031   20.4156  -19.1346   17.5964 -475.5572  -40.7339
  5.310  -19.2232   18.8109  -19.3289   19.2766  -18.8936   21.1652  -20.1489   19.5048  -19.6343   20.6752  -19.2569   17.8571 -473.2470  -40.9078
  5.320  -19.4857   19.0717  -19.5632   19.5217  -19.2667   21.4981  -20.4629   19.7419  -19.9894   20.9019  -19.4053   18.1082 -470.4547  -41.0807
  5.330  -19.7686   19.3055  -19.8184   19.7444  -19.6749   21.7932  -20.7961   19.9460  -20.3644   21.0938  -19.5793   18.3468 -467.1972  -41.2524
  5.340  -20.0688   19.5115  -20.0923   19.9435  -20.1133   22.0468  -21.1445   20.1164  -20.7552   21.2497  -19.7778   18.5703 -463.4935  -41.4227
  5.350  -20.3835   19.6892  -20.3826   20.1179  -20.5767   22.2557  -21.5044   20.2528  -21.1578   21.3690  -19.9993   18.7758 -459.3649  -41.5915
  5.360  -20.7100   19.8385  -20.6868   20.2669  -21.0593   22.4181  -21.8724   20.3555  -21.5683   21.4517  -20.2419   18.9612 -454.8341  -41.7587
  5.370  -21.0458   19.9595  -21.0027   20.3898  -21.5555   22.5328  -22.2451   20.4251  -21.9830   21.4983  -20.5034   19.1241 -449.9254  -41.9240
  5.380  -21.3886   20.0523  -21.3282   20.4864  -22.0596   22.5996  -22.6198   20.4624  -22.3986   21.5094  -20.7816   19.2630 -444.6642  -42.0874
  5.390  -21.7362   20.1174  -21.6610   20.5564  -22.5662   22.6190  -22.9937   20.4686  -22.8118   21.4864  -21.0737   19.3764 -439.0769  -42.2488
  5.400  -22.0867   20.1552  -21.9989   20.5998  -23.0703   22.5922  -23.3647   20.4448  -23.2200   21.4305  -21.3770   19.4633 -433.1900  -42.4080
  5.410  -22.4383   20.1662  -22.3401   20.6169  -23.5672   22.5213  -23.7306   20.3924  -23.6204   21.3433  -21.6889   19.5232 -427.0308  -42.5649
  5.420  -22.7891   20.1510  -22.6824   20.6077  -24.0528   22.4084  -24.0895   20.3129  -24.0110   21.2267  -22.0067   19.5556 -420.6261  -42.7195
  5.430  -23.1375   20.1102  -23.0239   20.5729  -24.5234   22.2563  -24.4399   20.2075  -24.3898   21.0824  -22.3275   19.5607 -414.0027  -42.8716
  5.440  -23.4820   20.0445  -23.3627   20.5129  -24.9759   22.0680  -24.7803   20.0779  -24.7551   20.9123  -22.6490   19.5389 -407.1867  -43.0213
  5.450  -23.8209   19.9547  -23.6971   20.4286  -25.4077   21.8467  -25.1094   19.9254  -25.1055   20.7184  -22.9686   19.4907 -400.2038  -43.1683
  5.460  -24.1528   19.8417  -24.0255   20.3206  -25.8168   21.5956  -25.4261   19.7516  -25.4399   20.5026  -23.2841   19.4172 -393.0784  -43.3128
  5.470  -24.4763   19.7064  -24.3461   20.1900  -26.2015   21.3181  -25.7294   19.5578  -25.7571   20.2668  -23.5935   19.3193 -385.8340  -43.4546
  5.480  -24.7900   19.5498  -24.6576   20.0379  -26.5607   21.0173  -26.0185   19.3457  -26.0565   20.0131  -23.8950   19.1983 -378.4930  -43.5937
  5.490  -25.0928   19.3730  -24.9587   19.8653  -26.8937   20.6966  -26.2925   19.1167  -26.3374   19.7432  -24.1869   19.0557 -371.0763  -43.7300
  5.500  -25.3834   19.1772  -25.2481   19.6736  -27.2001   20.3589  -26.5508   18.8722  -26.5995   19.4589  -24.4677   18.8928 -363.6036  -43.8637
  5.510  -25.6608   18.9637  -25.5247   19.4641  -27.4798   20.0070  -26.7930   18.6137  -26.8424   19.1622  -24.7363   18.7114 -356.0931  -43.9945
  5.520  -25.9241   18.7337  -25.7876   19.2381  -27.7330   19.6439  -27.0186   18.3427  -27.0661   18.8546  -24.9918   18.5128 -348.5614  -44.1226
  5.530  -26.1726   18.4886  -26.0361   18.9970  -27.9602   19.2719  -27.2274   18.0606  -27.2705   18.5378  -25.2332   18.2988 -341.0241  -44.2479
  5.540  -26.4055   18.2299  -26.2694   18.7422  -28.1621   18.8933  -27.4191   17.7688  -27.4557   18.2135  -25.4600   18.0708 -333.4948  -44.3705
  5.550  -26.6223   17.9589  -26.4871   18.4753  -28.3393   18.5102  -27.5936   17.4687  -27.6220   17.8830  -25.6718   17.8306 -325.9863  -44.4903
  5.560  -26.8227   17.6771  -26.6888   18.1975  -28.4929   18.1247  -27.7511   17.1616  -27.7697   17.5477  -25.8682   17.5794 -318.5095  -44.6073
  5.570  -27.0062   17.3859  -26.8743   17.9103  -28.6239   17.7382  -27.8915   16.8489  -27.8993   17.2091  -26.0491   17.3190 -311.0744  -44.7217
  5.580  -27.1730   17.0867  -27.0435   17.6152  -28.7333   17.3523  -28.0151   16.5317  -28.0110   16.8682  -26.2144   17.0505 -303.6898  -44.8333
  5.590  -27.3228   16.7809  -27.1962   17.3133  -28.8223   16.9683  -28.1222   16.2112  -28.1056   16.5263  -26.3643   16.7753 -296.3633  -44.9422
  5.600  -27.4557   16.4698  -27.3327   17.0059  -28.8920   16.5873  -28.2131   15.8886  -28.1836   16.1844  -26.4989   16.4946 -289.1014  -45.0484
  5.610  -27.5721   16.1546  -27.4531   16.6944  -28.9435   16.2103  -28.2882   15.5650  -28.2456   15.8434  -26.6185   16.2096 -281.9099  -45.1520
  5.620  -27.6721   15.8367  -27.5578   16.3797  -28.9780   15.8380  -28.3480   15.2412  -28.2923   15.5043  -26.7234   15.9214 -274.7936  -45.2530
  5.630  -27.7562   15.5169  -27.6470   16.0631  -28.9965   15.4713  -28.3931   14.9181  -28.3243   15.1677  -26.8139   15.6309 -267.7565  -45.3514
  5.640  -27.8247   15.1966  -27.7211   15.7454  -29.0001   15.1106  -28.4240   14.5967  -28.3425   14.8343  -26.8905   15.3391 -260.8023  -45.4472
  5.650  -27.8783   14.8765  -27.7807   15.4277  -28.9899   14.7564  -28.4412   14.2777  -28.3474   14.5049  -26.9536   15.0467 -253.9337  -45.5406
  5.660  -27.9173   14.5576  -27.8262   15.1107  -28.9669   14.4091  -28.4455   13.9617  -28.3398   14.1799  -27.0037   14.7546 -247.1533  -45.6314
  5.670  -27.9425   14.2407  -27.8581   14.7952  -28.9319   14.0690  -28.4375   13.6493  -28.3204   13.8598  -27.0414   14.4634 -240.4630  -45.7198
  5.680  -27.9545   13.9266  -27.8771   14.4820  -28.8858   13.7362  -28.4178   13.3412  -28.2899   13.5451  -27.0670   14.1738 -233.8645  -45.8057
  5.690  -27.9538   13.6158  -27.8838   14.1717  -28.8295   13.4110  -28.3871   13.0376  -28.2490   13.2360  -27.0812   13.8863 -227.3592  -45.8893
  5.700  -27.9413   13.3090  -27.8786   13.8648  -28.7639   13.0934  -28.3460   12.7391  -28.1983   12.9328  -27.0845   13.6014 -220.9483  -45.9704
  5.710  -27.9174   13.0066  -27.8623   13.5619  -28.6895   12.7835  -28.2952   12.4461  -28.1386   12.6358  -27.0774   13.3196 -214.6328  -46.0493
  5.720  -27.8829   12.7091  -27.8355   13.2633  -28.6071   12.4813  -28.2353   12.1586  -28.0705   12.3451  -27.0604   13.0413 -208.4135  -46.1259
  5.730  -27.8385   12.4169  -27.7987   12.9694  -28.5175   12.1868  -28.1670   11.8771  -27.9945   12.0610  -27.0341   12.7669 -202.2913  -46.2003
  5.740  -27.7848   12.1301  -27.7526   12.6807  -28.4211   11.9000  -28.0908   11.6017  -27.9113   11.7834  -26.9990   12.4965 -196.2667  -46.2724
  5.750  -27.7223   11.8492  -27.6976   12.3972  -28.3185   11.6208  -28.0073   11.3324  -27.8214   11.5125  -26.9555   12.2306 -190.3405  -46.3423
  5.760  -27.6518   11.5743  -27.6345   12.1193  -28.2104   11.3491  -27.9171   11.0695  -27.7254   11.2483  -26.9043   11.9693 -184.5132  -46.4101
  5.770  -27.5739   11.3055  -27.5638   11.8472  -28.0972   11.0849  -27.8207   10.8130  -27.6237   10.9908  -26.8457   11.7128 -178.7853  -46.4758
  5.780  -27.4890   11.0430  -27.4860   11.5809  -27.9793   10.8279  -27.7186   10.5629  -27.5169   10.7399  -26.7803   11.4613 -173.1576  -46.5395
  5.790  -27.3978   10.7868  -27.4016   11.3207  -27.8573   10.5782  -27.6114   10.3193  -27.4054   10.4957  -26.7085   11.2148 -167.6304  -46.6011
  5.800  -27.3007   10.5370  -27.3111   11.0664  -27.7314   10.3355  -27.4994   10.0820  -27.2896   10.2580  -26.6307   10.9736 -162.2043  -46.6607
  5.810  -27.1983   10.2936  -27.2151   10.8183  -27.6022   10.0997  -27.3831    9.8510  -27.1700   10.0268  -26.5474   10.7376 -156.8799  -46.7183
  5.820  -27.0910   10.0566  -27.1139   10.5763  -27.4699    9.8706  -27.2630    9.6264  -27.0469    9.8020  -26.4590   10.5069 -151.6577  -46.7741
  5.830  -26.9793    9.8258  -27.0080   10.3404  -27.3349    9.6482  -27.1394    9.4079  -26.9207    9.5835  -26.3659   10.2816 -146.5381  -46.8279
  5.840  -26.8636    9.6014  -26.8979   10.1106  -27.1975    9.4323  -27.0127    9.1956  -26.7917    9.3711  -26.2684   10.0615 -141.5216  -46.8799
  5.850  -26.7443    9.3831  -26.7838    9.8867  -27.0579    9.2226  -26.8831    8.9893  -26.6602    9.1648  -26.1669    9.8468 -136.6087  -46.9301
  5.860  -26.6217    9.1709  -26.6662    9.6689  -26.9166    9.0191  -26.7512    8.7888  -26.5266    8.9644  -26.0617    9.6374 -131.7997  -46.9786
  5.870  -26.4962    8.9648  -26.5454    9.4569  -26.7736    8.8216  -26.6170    8.5941  -26.3911    8.7698  -25.9532    9.4332 -127.0951  -47.0253
  5.880  -26.3682    8.7645  -26.4218    9.2508  -26.6293    8.6298  -26.4810    8.4051  -26.2539    8.5808  -25.8417    9.2343 -122.4950  -47.0703
  5.890  -26.2379    8.5699  -26.2957    9.0503  -26.4839    8.4438  -26.3433    8.2215  -26.1153    8.3973  -25.7274    9.0404 -117.9998  -47.1137
  5.900  -26.1056    8.3811  -26.1673    8.8554  -26.3375    8.2632  -26.2042    8.0433  -25.9755    8.2192  -25.6107    8.8516 -113.6097  -47.1554
  5.910  -25.9716    8.1977  -26.0369    8.6660  -26.1903    8.0880  -26.0639    7.8703  -25.8347    8.0462  -25.4917    8.6678 -109.3247  -47.1956
  5.920  -25.8361    8.0196  -25.9047    8.4820  -26.0426    7.9180  -25.9227    7.7025  -25.6932    7.8783  -25.3708    8.4889 -105.1448  -47.2342
  5.930  -25.6994    7.8468  -25.7711    8.3031  -25.8944    7.7529  -25.7807    7.5395  -25.5510    7.7153  -25.2482    8.3148 -101.0701  -47.2714
  5.940  -25.5615    7.6791  -25.6362    8.1294  -25.7459    7.5928  -25.6380    7.3813  -25.4083    7.5571  -25.1240    8.1454  -97.1004  -47.3071
  5.950  -25.4229    7.5163  -25.5002    7.9606  -25.5974    7.4374  -25.4949    7.2278  -25.2653    7.4035  -24.9984    7.9805  -93.2353  -47.3413
  5.960  -25.2835    7.3584  -25.3633    7.7967  -25.4488    7.2865  -25.3515    7.0788  -25.1221    7.2544  -24.8717    7.8202  -89.4747  -47.3742
  5.970  -25.1437    7.2051  -25.2257    7.6375  -25.3003    7.1401  -25.2080    6.9342  -24.9789    7.1096  -24.7441    7.6642  -85.8181  -47.4057
  5.980  -25.0034    7.0562  -25.0876    7.4829  -25.1519    6.9980  -25.0644    6.7938  -24.8357    6.9690  -24.6156    7.5125  -82.2650  -47.4360
  5.990  -24.8630    6.9118  -24.9490    7.3327  -25.0039    6.8600  -24.9208    6.6575  -24.6927    6.8325  -24.4864    7.3649  -78.8147  -47.4649
  6.000  -24.7224    6.7716  -24.8101    7.1868  -24.8563    6.7260  -24.7774    6.5252  -24.5499    6.7000  -24.3568    7.2214  -75.4665  -47.4927
  6.010  -24.5818    6.6356  -24.6711    7.0451  -24.7092    6.5959  -24.6343    6.3967  -24.4075    6.5712  -24.2267    7.0819  -72.2196  -47.5192
  6.020  -24.4414    6.5035  -24.5321    6.9075  -24.5626    6.4696  -24.4916    6.2719  -24.2655    6.4462  -24.0964    6.9462  -69.0731  -47.5446
  6.030  -24.3012    6.3752  -24.3931    6.7738  -24.4166    6.3469  -24.3492    6.1508  -24.1239    6.3247  -23.9658    6.8142  -66.0260  -47.5689
  6.040  -24.1612    6.2507  -24.2544    6.6439  -24.2712    6.2277  -24.2074    6.0331  -23.9829    6.2066  -23.8353    6.6858  -63.0772  -47.5920
  6.050  -24.0217    6.1298  -24.1158    6.5177  -24.1266    6.1119  -24.0662    5.9187  -23.8426    6.0919  -23.7047    6.5609  -60.2254  -47.6142
  6.060  -23.8826    6.0123  -23.9776    6.3951  -23.9828    5.9994  -23.9255    5.8076  -23.7029    5.9804  -23.5743    6.4395  -57.4695  -47.6353
  6.070  -23.7441    5.8982  -23.8399    6.2759  -23.8398    5.8900  -23.7856    5.6997  -23.5639    5.8721  -23.4440    6.3213  -54.8081  -47.6554
  6.080  -23.6061    5.7874  -23.7026    6.1601  -23.6976    5.7837  -23.6463    5.5948  -23.4257    5.7667  -23.3140    6.2064  -52.2396  -47.6746
  6.090  -23.4688    5.6797  -23.5658    6.0475  -23.5564    5.6804  -23.5079    5.4928  -23.2883    5.6642  -23.1844    6.0945  -49.7626  -47.6929
  6.100  -23.3321    5.5751  -23.4297    5.9380  -23.4160    5.5799  -23.3702    5.3937  -23.1518    5.5646  -23.0551    5.9857  -47.3756  -47.7103
  6.110  -23.1962    5.4734  -23.2942    5.8316  -23.2766    5.4822  -23.2334    5.2973  -23.0160    5.4677  -22.9263    5.8798  -45.0768  -47.7269
  6.120  -23.0611    5.3745  -23.1594    5.7281  -23.1382    5.3872  -23.0975    5.2035  -22.8812    5.3734  -22.7980    5.7767  -42.8646  -47.7426
  6.130  -22.9268    5.2783  -23.0253    5.6274  -23.0008    5.2947  -22.9624    5.1123  -22.7473    5.2817  -22.6703    5.6764  -40.7372  -47.7576
  6.140  -22.7933    5.1848  -22.8920    5.5295  -22.8644    5.2047  -22.8283    5.0236  -22.6144    5.1924  -22.5431    5.5787  -38.6927  -47.7718
  6.150  -22.6607    5.0939  -22.7595    5.4342  -22.7291    5.1172  -22.6951    4.9372  -22.4824    5.1054  -22.4166    5.4836  -36.7294  -47.7853
  6.160  -22.5289    5.0054  -22.6279    5.3414  -22.5948    5.0320  -22.5629    4.8532  -22.3514    5.0208  -22.2907    5.3909  -34.8453  -47.7981
  6.170  -22.3981    4.9194  -22.4971    5.2512  -22.4615    4.9490  -22.4317    4.7714  -22.2213    4.9384  -22.1655    5.3007  -33.0385  -47.8103
  6.180  -22.2682    4.8356  -22.3671    5.1633  -22.3293    4.8682  -22.3014    4.6917  -22.0923    4.8581  -22.0411    5.2129  -31.3071  -47.8218
  6.190  -22.1393    4.7541  -22.2381    5.0778  -22.1982    4.7895  -22.1721    4.6141  -21.9643    4.7800  -21.9174    5.1272  -29.6490  -47.8327
  6.200  -22.0113    4.6747  -22.1100    4.9945  -22.0682    4.7128  -22.0439    4.5386  -21.8372    4.7038  -21.7945    5.0438  -28.0622  -47.8430
  6.210  -21.8843    4.5974  -21.9829    4.9133  -21.9392    4.6381  -21.9166    4.4650  -21.7112    4.6295  -21.6723    4.9625  -26.5449  -47.8527
  6.220  -21.7582    4.5221  -21.8566    4.8343  -21.8114    4.5653  -21.7904    4.3933  -21.5863    4.5571  -21.5510    4.8832  -25.0948  -47.8620
  6.230  -21.6332    4.4488  -21.7314    4.7572  -21.6846    4.4944  -21.6652    4.3234  -21.4623    4.4866  -21.4305    4.8060  -23.7100  -47.8707
  6.240  -21.5091    4.3773  -21.6071    4.6822  -21.5589    4.4252  -21.5410    4.2552  -21.3394    4.4178  -21.3108    4.7306  -22.3885  -47.8789
  6.250  -21.3861    4.3077  -21.4837    4.6090  -21.4343    4.3578  -21.4179    4.1888  -21.2175    4.3507  -21.1920    4.6572  -21.1282  -47.8867
  6.260  -21.2640    4.2398  -21.3614    4.5376  -21.3108    4.2920  -21.2958    4.1240  -21.0966    4.2852  -21.0740    4.5855  -19.9272  -47.8940
  6.270  -21.1429    4.1737  -21.2400    4.4681  -21.1883    4.2278  -21.1747    4.0609  -20.9768    4.2214  -20.9569    4.5156  -18.7834  -47.9009
  6.280  -21.0229    4.1091  -21.1196    4.4002  -21.0670    4.1652  -21.0546    3.9992  -20.8579    4.1590  -20.8406    4.4474  -17.6949  -47.9074
  6.290  -20.9038    4.0462  -21.0002    4.3340  -20.9467    4.1041  -20.9355    3.9391  -20.7401    4.0982  -20.7252    4.3808  -16.6597  -47.9135
  6.300  -20.7858    3.9849  -20.8818    4.2695  -20.8274    4.0445  -20.8175    3.8804  -20.6234    4.0388  -20.6107    4.3158  -15.6759  -47.9193
  6.310  -20.6687    3.9250  -20.7643    4.2065  -20.7093    3.9862  -20.7005    3.8231  -20.5076    3.9808  -20.4971    4.2524  -14.7415  -47.9247
  6.320  -20.5527    3.8665  -20.6478    4.1449  -20.5922    3.9294  -20.5845    3.7672  -20.3928    3.9242  -20.3844    4.1904  -13.8546  -47.9298
  6.330  -20.4376    3.8095  -20.5324    4.0849  -20.4761    3.8739  -20.4695    3.7126  -20.2790    3.8689  -20.2725    4.1299  -13.0135  -47.9346
  6.340  -20.3236    3.7538  -20.4179    4.0263  -20.3611    3.8196  -20.3555    3.6593  -20.1663    3.8148  -20.1616    4.0708  -12.2163  -47.9391
  6.350  -20.2105    3.6995  -20.3043    3.9690  -20.2470    3.7666  -20.2424    3.6072  -20.0545    3.7620  -20.0515    4.0131  -11.4612  -47.9433
  6.360  -20.0983    3.6464  -20.1918    3.9131  -20.1341    3.7149  -20.1304    3.5563  -19.9436    3.7104  -19.9423    3.9567  -10.7464  -47.9472
  6.370  -19.9872    3.5945  -20.0802    3.8584  -20.0221    3.6643  -20.0193    3.5066  -19.8338    3.6600  -19.8340    3.9016  -10.0703  -47.9509
  6.380  -19.8770    3.5439  -19.9695    3.8050  -19.9111    3.6148  -19.9092    3.4580  -19.7249    3.6106  -19.7266    3.8477   -9.4313  -47.9544
  6.390  -19.7678    3.4944  -19.8598    3.7529  -19.8012    3.5664  -19.8001    3.4105  -19.6170    3.5624  -19.6200    3.7950   -8.8276  -47.9576
  6.400  -19.6595    3.4460  -19.7511    3.7018  -19.6922    3.5191  -19.6919    3.3640  -19.5100    3.5152  -19.5143    3.7435   -8.2577  -47.9607
  6.410  -19.5522    3.3987  -19.6432    3.6520  -19.5842    3.4729  -19.5847    3.3186  -19.4040    3.4691  -19.4094    3.6931   -7.7200  -47.9635
  6.420  -19.4458    3.3525  -19.5364    3.6032  -19.4771    3.4276  -19.4784    3.2742  -19.2988    3.4239  -19.3055    3.6439   -7.2132  -47.9662
  6.430  -19.3403    3.3073  -19.4304    3.5555  -19.3710    3.3834  -19.3730    3.2307  -19.1947    3.3798  -19.2024    3.5957   -6.7356  -47.9686
  6.440  -19.2357    3.2631  -19.3254    3.5089  -19.2659    3.3400  -19.2686    3.1882  -19.0914    3.3365  -19.1001    3.5485   -6.2860  -47.9709
  6.450  -19.1321    3.2199  -19.2212    3.4632  -19.1617    3.2976  -19.1650    3.1466  -18.9890    3.2942  -18.9987    3.5024   -5.8630  -47.9731
  6.460  -19.0293    3.1776  -19.1180    3.4186  -19.0584    3.2561  -19.0624    3.1059  -18.8875    3.2528  -18.8981    3.4572   -5.4652  -47.9751
  6.470  -18.9275    3.1362  -19.0157    3.3748  -18.9561    3.2155  -18.9606    3.0660  -18.7869    3.2122  -18.7983    3.4130   -5.0914  -47.9770
  6.480  -18.8265    3.0957  -18.9142    3.3321  -18.8546    3.1757  -18.8598    3.0270  -18.6872    3.1724  -18.6994    3.3697   -4.7404  -47.9787
  6.490  -18.7264    3.0560  -18.8136    3.2902  -18.7541    3.1367  -18.7598    2.9888  -18.5883    3.1335  -18.6013    3.3273   -4.4111  -47.9803
  6.500  -18.6272    3.0172  -18.7139    3.2491  -18.6544    3.0985  -18.6606    2.9514  -18.4903    3.0954  -18.5040    3.2858   -4.1022  -47.9818
  6.510  -18.5288    2.9792  -18.6150    3.2090  -18.5556    3.0611  -18.5624    2.9147  -18.3931    3.0580  -18.4075    3.2452   -3.8127  -47.9832
  6.520  -18.4313    2.9420  -18.5170    3.1696  -18.4577    3.0245  -18.4649    2.8788  -18.2968    3.0214  -18.3118    3.2053   -3.5415  -47.9845
  6.530  -18.3346    2.9055  -18.4198    3.1311  -18.3606    2.9886  -18.3683    2.8437  -18.2013    2.9855  -18.2168    3.1663   -3.2877  -47.9858
  6.540  -18.2387    2.8698  -18.3235    3.0933  -18.2644    2.9534  -18.2726    2.8092  -18.1066    2.9503  -18.1227    3.1281   -3.0503  -47.9869
  6.550  -18.1437    2.8348  -18.2280    3.0563  -18.1690    2.9188  -18.1776    2.7754  -18.0128    2.9158  -18.0294    3.0906   -2.8284  -47.9879
  6.560  -18.0494    2.8005  -18.1333    3.0200  -18.0744    2.8850  -18.0835    2.7423  -17.9197    2.8820  -17.9368    3.0538   -2.6211  -47.9889
  6.570  -17.9560    2.7669  -18.0394    2.9844  -17.9807    2.8518  -17.9901    2.7098  -17.8274    2.8488  -17.8449    3.0178   -2.4275  -47.9898
  6.580  -17.8634    2.7340  -17.9463    2.9496  -17.8877    2.8192  -17.8976    2.6780  -17.7359    2.8163  -17.7539    2.9825   -2.2469  -47.9906
  6.590  -17.7715    2.7017  -17.8539    2.9154  -17.7956    2.7873  -17.8058    2.6468  -17.6452    2.7844  -17.6635    2.9478   -2.0786  -47.9914
  6.600  -17.6804    2.6700  -17.7624    2.8818  -17.7042    2.7560  -17.7148    2.6161  -17.5553    2.7530  -17.5739    2.9138   -1.9217  -47.9921
  6.610  -17.5901    2.6390  -17.6716    2.8489  -17.6137    2.7253  -17.6246    2.5861  -17.4661    2.7223  -17.4851    2.8805   -1.7756  -47.9927
  6.620  -17.5006    2.6085  -17.5816    2.8167  -17.5239    2.6951  -17.5351    2.5566  -17.3776    2.6921  -17.3970    2.8478   -1.6396  -47.9933
  6.630  -17.4118    2.5786  -17.4924    2.7850  -17.4348    2.6655  -17.4464    2.5277  -17.2899    2.6625  -17.3095    2.8157   -1.5132  -47.9939
  6.640  -17.3237    2.5493  -17.4039    2.7540  -17.3465    2.6364  -17.3584    2.4993  -17.2029    2.6335  -17.2228    2.7842   -1.3957  -47.9944
  6.650  -17.2364    2.5206  -17.3161    2.7235  -17.2590    2.6079  -17.2711    2.4715  -17.1166    2.6049  -17.1368    2.7533   -1.2866  -47.9949
  6.660  -17.1498    2.4923  -17.2290    2.6935  -17.1721    2.5799  -17.1845    2.4441  -17.0311    2.5769  -17.0515    2.7230   -1.1852  -47.9953
  6.670  -17.0639    2.4646  -17.1427    2.6642  -17.0860    2.5524  -17.0987    2.4173  -16.9462    2.5494  -16.9668    2.6932   -1.0913  -47.9957
  6.680  -16.9787    2.4374  -17.0571    2.6353  -17.0006    2.5253  -17.0136    2.3909  -16.8621    2.5223  -16.8829    2.6639   -1.0042  -47.9961
  6.690  -16.8942    2.4107  -16.9722    2.6070  -16.9160    2.4988  -16.9291    2.3651  -16.7786    2.4958  -16.7996    2.6352   -0.9235  -47.9964
  6.700  -16.8104    2.3845  -16.8879    2.5792  -16.8320    2.4727  -16.8454    2.3396  -16.6958    2.4697  -16.7170    2.6070   -0.8487  -47.9967
  6.710  -16.7273    2.3588  -16.8044    2.5519  -16.7487    2.4471  -16.7623    2.3147  -16.6137    2.4440  -16.6350    2.5793   -0.7796  -47.9970
  6.720  -16.6448    2.3335  -16.7215    2.5250  -16.6661    2.4219  -16.6799    2.2901  -16.5322    2.4188  -16.5537    2.5520   -0.7157  -47.9973
  6.730  -16.5630    2.3087  -16.6393    2.4987  -16.5841    2.3972  -16.5981    2.2660  -16.4514    2.3941  -16.4730    2.5253   -0.6566  -47.9975
  6.740  -16.4819    2.2843  -16.5578    2.4727  -16.5028    2.3729  -16.5170    2.2423  -16.3712    2.3697  -16.3929    2.4990   -0.6020  -47.9977
  6.750  -16.4014    2.2603  -16.4769    2.4473  -16.4222    2.3490  -16.4366    2.2191  -16.2917    2.3458  -16.3135    2.4732   -0.5517  -47.9979
  6.760  -16.3216    2.2368  -16.3967    2.4223  -16.3422    2.3255  -16.3568    2.1962  -16.2128    2.3223  -16.2347    2.4478   -0.5052  -47.9981
  6.770  -16.2424    2.2136  -16.3171    2.3977  -16.2629    2.3023  -16.2776    2.1737  -16.1346    2.2991  -16.1565    2.4228   -0.4624  -47.9983
  6.780  -16.1639    2.1909  -16.2382    2.3735  -16.1842    2.2796  -16.1991    2.1516  -16.0569    2.2764  -16.0790    2.3983   -0.4230  -47.9984
  6.790  -16.0859    2.1685  -16.1598    2.3497  -16.1061    2.2573  -16.1212    2.1299  -15.9799    2.2540  -16.0020    2.3741   -0.3867  -47.9986
  6.800  -16.0086    2.1465  -16.0821    2.3263  -16.0286    2.2353  -16.0438    2.1085  -15.9034    2.2320  -15.9256    2.3504   -0.3533  -47.9987
  6.810  -15.9318    2.1249  -16.0050    2.3033  -15.9518    2.2137  -15.9671    2.0875  -15.8276    2.2104  -15.8498    2.3271   -0.3226  -47.9988
  6.820  -15.8557    2.1037  -15.9285    2.2807  -15.8755    2.1924  -15.8910    2.0668  -15.7523    2.1891  -15.7746    2.3041   -0.2944  -47.9989
  6.830  -15.7802    2.0828  -15.8526    2.2585  -15.7999    2.1714  -15.8155    2.0465  -15.6777    2.1681  -15.6999    2.2816   -0.2685  -47.9990
  6.840  -15.7052    2.0622  -15.7772    2.2366  -15.7248    2.1508  -15.7405    2.0265  -15.6036    2.1475  -15.6259    2.2594   -0.2447  -47.9991
  6.850  -15.6308    2.0420  -15.7025    2.2151  -15.6503    2.1306  -15.6661    2.0068  -15.5300    2.1272  -15.5523    2.2375   -0.2229  -47.9992
  6.860  -15.5570    2.0221  -15.6283    2.1939  -15.5764    2.1106  -15.5923    1.9874  -15.4571    2.1072  -15.4794    2.2160   -0.2029  -47.9993
  6.870  -15.4838    2.0025  -15.5547    2.1730  -15.5031    2.0910  -15.5191    1.9684  -15.3847    2.0875  -15.4070    2.1949   -0.1846  -47.9994
  6.880  -15.4111    1.9833  -15.4817    2.1525  -15.4303    2.0716  -15.4464    1.9496  -15.3128    2.0681  -15.3351    2.1740   -0.1679  -47.9994
  6.890  -15.3389    1.9643  -15.4092    2.1323  -15.3581    2.0526  -15.3742    1.9312  -15.2415    2.0491  -15.2637    2.1535   -0.1525  -47.9995
  6.900  -15.2673    1.9457  -15.3373    2.1125  -15.2864    2.0339  -15.3026    1.9130  -15.1707    2.0303  -15.1929    2.1334   -0.1385  -47.9995
  6.910  -15.1963    1.9273  -15.2659    2.0929  -15.2152    2.0154  -15.2316    1.8951  -15.1004    2.0118  -15.1227    2.1135   -0.1257  -47.9996
  6.920  -15.1258    1.9093  -15.1950    2.0736  -15.1446    1.9972  -15.1610    1.8775  -15.0307    1.9936  -15.0529    2.0940   -0.1140  -47.9996
  6.930  -15.0558    1.8915  -15.1247    2.0547  -15.0745    1.9793  -15.0910    1.8602  -14.9614    1.9757  -14.9836    2.0747   -0.1034  -47.9997
  6.940  -14.9863    1.8740  -15.0549    2.0360  -15.0050    1.9617  -15.0215    1.8431  -14.8927    1.9580  -14.9149    2.0557   -0.0937  -47.9997
  6.950  -14.9173    1.8567  -14.9856    2.0176  -14.9359    1.9443  -14.9525    1.8263  -14.8245    1.9406  -14.8466    2.0371   -0.0848  -47.9997
  6.960  -14.8489    1.8398  -14.9169    1.9995  -14.8674    1.9272  -14.8841    1.8097  -14.7568    1.9235  -14.7789    2.0187   -0.0767  -47.9997
  6.970  -14.7809    1.8230  -14.8486    1.9816  -14.7994    1.9103  -14.8161    1.7934  -14.6896    1.9066  -14.7116    2.0006   -0.0694  -47.9998
  6.980  -14.7135    1.8066  -14.7808    1.9640  -14.7319    1.8937  -14.7486    1.7773  -14.6229    1.8899  -14.6449    1.9827   -0.0627  -47.9998
  6.990  -14.6465    1.7903  -14.7136    1.9467  -14.6648    1.8773  -14.6816    1.7615  -14.5566    1.8735  -14.5786    1.9651   -0.0567  -47.9998
  7.000  -14.5800    1.7744  -14.6468    1.9296  -14.5983    1.8612  -14.6151    1.7459  -14.4909    1.8574  -14.5127    1.9478   -0.0511  -47.9998
  7.010  -14.5140    1.7586  -14.5805    1.9128  -14.5322    1.8453  -14.5491    1.7305  -14.4256    1.8414  -14.4474    1.9307   -0.0461  -47.9999
  7.020  -14.4485    1.7431  -14.5147    1.8962  -14.4666    1.8296  -14.4835    1.7154  -14.3608    1.8257  -14.3825    1.9139   -0.0416  -47.9999
  7.030  -14.3834    1.7278  -14.4493    1.8799  -14.4015    1.8142  -14.4184    1.7004  -14.2964    1.8102  -14.3181    1.8973   -0.0375  -47.9999
  7.040  -14.3188    1.7128  -14.3845    1.8638  -14.3368    1.7989  -14.3538    1.6857  -14.2325    1.7949  -14.2541    1.8810   -0.0337  -47.9999
  7.050  -14.2547    1.6979  -14.3200    1.8479  -14.2726    1.7839  -14.2896    1.6712  -14.1690    1.7799  -14.1906    1.8649   -0.0304  -47.9999
  7.060  -14.1910    1.6833  -14.2561    1.8323  -14.2089    1.7691  -14.2259    1.6569  -14.1060    1.7650  -14.1275    1.8490   -0.0273  -47.9999
  7.070  -14.1278    1.6689  -14.1926    1.8168  -14.1456    1.7545  -14.1626    1.6428  -14.0434    1.7504  -14.0648    1.8333   -0.0245  -47.9999
  7.080  -14.0650    1.6546  -14.1295    1.8016  -14.0827    1.7400  -14.0998    1.6289  -13.9813    1.7360  -14.0026    1.8179   -0.0221  -47.9999
  7.090  -14.0026    1.6406  -14.0669    1.7866  -14.0203    1.7258  -14.0374    1.6152  -13.9196    1.7217  -13.9408    1.8027   -0.0198  -47.9999
  7.100  -13.9407    1.6268  -14.0047    1.7718  -13.9584    1.7118  -13.9755    1.6017  -13.8583    1.7077  -13.8795    1.7877   -0.0178  -47.9999
  7.110  -13.8792    1.6132  -13.9430    1.7573  -13.8968    1.6980  -13.9139    1.5884  -13.7975    1.6938  -13.8186    1.7728   -0.0159  -48.0000
  7.120  -13.8182    1.5997  -13.8817    1.7429  -13.8357    1.6843  -13.8528    1.5753  -13.7370    1.6802  -13.7580    1.7582   -0.0143  -48.0000
  7.130  -13.7575    1.5865  -13.8208    1.7287  -13.7750    1.6709  -13.7921    1.5623  -13.6770    1.6667  -13.6979    1.7438   -0.0128  -48.0000
  7.140  -13.6973    1.5734  -13.7603    1.7147  -13.7147    1.6576  -13.7318    1.5495  -13.6174    1.6534  -13.6382    1.7296   -0.0114  -48.0000
  7.150  -13.6375    1.5605  -13.7002    1.7009  -13.6548    1.6445  -13.6720    1.5369  -13.5582    1.6402  -13.5789    1.7156   -0.0102  -48.0000
  7.160  -13.5780    1.5478  -13.6406    1.6872  -13.5954    1.6316  -13.6125    1.5245  -13.4993    1.6273  -13.5200    1.7018   -0.0091  -48.0000
  7.170  -13.5190    1.5353  -13.5813    1.6738  -13.5363    1.6188  -13.5534    1.5122  -13.4409    1.6145  -13.4615    1.6882   -0.0082  -48.0000
  7.180  -13.4604    1.5229  -13.5225    1.6605  -13.4776    1.6062  -13.4948    1.5001  -13.3829    1.6019  -13.4034    1.6747   -0.0073  -48.0000
  7.190  -13.4022    1.5107  -13.4640    1.6474  -13.4194    1.5938  -13.4365    1.4881  -13.3253    1.5894  -13.3457    1.6614   -0.0065  -48.0000
  7.200  -13.3443    1.4987  -13.4060    1.6345  -13.3615    1.5815  -13.3786    1.4763  -13.2680    1.5771  -13.2883    1.6483   -0.0058  -48.0000
  7.210  -13.2869    1.4868  -13.3483    1.6217  -13.3040    1.5694  -13.3211    1.4647  -13.2111    1.5650  -13.2313    1.6354   -0.0052  -48.0000
  7.220  -13.2298    1.4751  -13.2910    1.6092  -13.2469    1.5574  -13.2640    1.4532  -13.1546    1.5530  -13.1748    1.6226   -0.0046  -48.0000
  7.230  -13.1731    1.4635  -13.2341    1.5967  -13.1901    1.5456  -13.2072    1.4419  -13.0985    1.5412  -13.1185    1.6100   -0.0041  -48.0000
  7.240  -13.1168    1.4521  -13.1775    1.5845  -13.1338    1.5340  -13.1508    1.4307  -13.0427    1.5295  -13.0627    1.5976   -0.0036  -48.0000
  7.250  -13.0608    1.4408  -13.1214    1.5724  -13.0778    1.5225  -13.0948    1.4197  -12.9873    1.5180  -13.0072    1.5853   -0.0032  -48.0000
  7.260  -13.0052    1.4297  -13.0656    1.5604  -13.0221    1.5111  -13.0392    1.4088  -12.9322    1.5066  -12.9520    1.5732   -0.0029  -48.0000
  7.270  -12.9500    1.4187  -13.0102    1.5486  -12.9668    1.4999  -12.9839    1.3980  -12.8775    1.4953  -12.8972    1.5612   -0.0026  -48.0000
  7.280  -12.8951    1.4078  -12.9551    1.5370  -12.9119    1.4888  -12.9290    1.3874  -12.8232    1.4842  -12.8428    1.5494   -0.0023  -48.0000
  7.290  -12.8406    1.3971  -12.9004    1.5254  -12.8574    1.4779  -12.8744    1.3769  -12.7692    1.4732  -12.7887    1.5377   -0.0020  -48.0000
  7.300  -12.7864    1.3866  -12.8460    1.5141  -12.8031    1.4671  -12.8202    1.3665  -12.7155    1.4624  -12.7350    1.5262   -0.0018  -48.0000
  7.310  -12.7326    1.3761  -12.7920    1.5029  -12.7493    1.4564  -12.7663    1.3563  -12.6622    1.4517  -12.6816    1.5148   -0.0016  -48.0000
  7.320  -12.6791    1.3658  -12.7383    1.4918  -12.6957    1.4458  -12.7127    1.3462  -12.6093    1.4411  -12.6285    1.5036   -0.0014  -48.0000
  7.330  -12.6260    1.3557  -12.6850    1.4808  -12.6426    1.4354  -12.6595    1.3362  -12.5566    1.4307  -12.5758    1.4925   -0.0012  -48.0000
  7.340  -12.5732    1.3456  -12.6320    1.4700  -12.5897    1.4251  -12.6066    1.3264  -12.5043    1.4204  -12.5234    1.4815   -0.0011  -48.0000
  7.350  -12.5207    1.3357  -12.5794    1.4593  -12.5372    1.4150  -12.5541    1.3166  -12.4523    1.4102  -12.4713    1.4707   -0.0010  -48.0000
  7.360  -12.4685    1.3259  -12.5270    1.4488  -12.4850    1.4049  -12.5019    1.3070  -12.4007    1.4001  -12.4195    1.4600   -0.0009  -48.0000
  7.370  -12.4167    1.3162  -12.4750    1.4383  -12.4331    1.3950  -12.4500    1.2975  -12.3493    1.3902  -12.3681    1.4494   -0.0008  -48.0000
  7.380  -12.3652    1.3066  -12.4234    1.4280  -12.3816    1.3852  -12.3984    1.2881  -12.2983    1.3803  -12.3170    1.4390   -0.0007  -48.0000
  7.390  -12.3140    1.2972  -12.3720    1.4179  -12.3303    1.3755  -12.3472    1.2789  -12.2476    1.3706  -12.2662    1.4287   -0.0006  -48.0000
  7.400  -12.2631    1.2879  -12.3210    1.4078  -12.2794    1.3659  -12.2962    1.2697  -12.1972    1.3610  -12.2157    1.4185   -0.0005  -48.0000
  7.410  -12.2125    1.2787  -12.2703    1.3979  -12.2288    1.3564  -12.2456    1.2607  -12.1471    1.3515  -12.1655    1.4084   -0.0005  -48.0000
  7.420  -12.1623    1.2696  -12.2199    1.3881  -12.1785    1.3471  -12.1953    1.2518  -12.0973    1.3422  -12.1156    1.3985   -0.0004  -48.0000
  7.430  -12.1123    1.2606  -12.1698    1.3784  -12.1285    1.3378  -12.1453    1.2429  -12.0478    1.3329  -12.0660    1.3886   -0.0004  -48.0000
  7.440  -12.0627    1.2517  -12.1200    1.3688  -12.0788    1.3287  -12.0956    1.2342  -11.9986    1.3237  -12.0167    1.3789   -0.0003  -48.0000
  7.450  -12.0133    1.2429  -12.0705    1.3593  -12.0294    1.3197  -12.0462    1.2256  -11.9497    1.3147  -11.9677    1.3693   -0.0003  -48.0000
  7.460  -11.9643    1.2342  -12.0213    1.3499  -11.9803    1.3107  -11.9970    1.2171  -11.9011    1.3057  -11.9190    1.3598   -0.0002  -48.0000
  7.470  -11.9155    1.2256  -11.9724    1.3407  -11.9315    1.3019  -11.9482    1.2086  -11.8528    1.2969  -11.8706    1.3504   -0.0002  -48.0000
  7.480  -11.8670    1.2172  -11.9238    1.3315  -11.8830    1.2932  -11.8997    1.2003  -11.8047    1.2881  -11.8225    1.3412   -0.0002  -48.0000
  7.490  -11.8188    1.2088  -11.8755    1.3225  -11.8348    1.2846  -11.8514    1.1921  -11.7570    1.2795  -11.7746    1.3320   -0.0002  -48.0000
  7.500  -11.7709    1.2005  -11.8274    1.3135  -11.7869    1.2760  -11.8035    1.1840  -11.7095    1.2710  -11.7271    1.3229   -0.0002  -48.0000
  7.510  -11.7233    1.1923  -11.7797    1.3047  -11.7392    1.2676  -11.7558    1.1759  -11.6623    1.2625  -11.6798    1.3140   -0.0001  -48.0000
  7.520  -11.6759    1.1842  -11.7322    1.2959  -11.6918    1.2593  -11.7084    1.1680  -11.6154    1.2541  -11.6328    1.3051   -0.0001  -48.0000
  7.530  -11.6289    1.1763  -11.6851    1.2873  -11.6447    1.2510  -11.6612    1.1601  -11.5687    1.2459  -11.5860    1.2964   -0.0001  -48.0000
  7.540  -11.5821    1.1684  -11.6382    1.2787  -11.5979    1.2429  -11.6144    1.1524  -11.5224    1.2377  -11.5396    1.2877   -0.0001  -48.0000
  7.550  -11.5355    1.1605  -11.5915    1.2703  -11.5513    1.2348  -11.5678    1.1447  -11.4763    1.2296  -11.4934    1.2792   -0.0001  -48.0000
  7.560  -11.4893    1.1528  -11.5452    1.2619  -11.5050    1.2268  -11.5215    1.1371  -11.4304    1.2216  -11.4474    1.2707   -0.0001  -48.0000
  7.570  -11.4433    1.1452  -11.4991    1.2537  -11.4590    1.2190  -11.4754    1.1296  -11.3848    1.2137  -11.4018    1.2624   -0.0001  -48.0000
  7.580  -11.3975    1.1377  -11.4532    1.2455  -11.4132    1.2112  -11.4296    1.1222  -11.3395    1.2059  -11.3563    1.2541   -0.0001  -48.0000
  7.590  -11.3521    1.1302  -11.4077    1.2374  -11.3677    1.2035  -11.3841    1.1149  -11.2944    1.1982  -11.3112    1.2459   -0.0001  -48.0000
  7.600  -11.3068    1.1228  -11.3624    1.2294  -11.3224    1.1958  -11.3388    1.1077  -11.2496    1.1906  -11.2663    1.2378   -0.0001  -48.0000
  7.610  -11.2619    1.1155  -11.3173    1.2215  -11.2774    1.1883  -11.2938    1.1005  -11.2050    1.1830  -11.2216    1.2299   -0.0001  -48.0000
  7.620  -11.2172    1.1083  -11.2725    1.2137  -11.2327    1.1808  -11.2490    1.0934  -11.1607    1.1755  -11.1772    1.2219   -0.0001  -48.0000
  7.630  -11.1727    1.1012  -11.2280    1.2060  -11.1882    1.1735  -11.2045    1.0864  -11.1166    1.1681  -11.1330    1.2141   -0.0001  -48.0000
  7.640  -11.1285    1.0942  -11.1837    1.1983  -11.1439    1.1662  -11.1602    1.0795  -11.0728    1.1608  -11.0891    1.2064   -0.0002  -48.0000
  7.650  -11.0845    1.0872  -11.1396    1.1908  -11.0999    1.1590  -11.1161    1.0726  -11.0292    1.1536  -11.0454    1.1987   -0.0002  -48.0000
  7.660  -11.0407    1.0803  -11.0958    1.1833  -11.0561    1.1518  -11.0724    1.0659  -10.9858    1.1464  -11.0020    1.1912   -0.0002  -48.0000
  7.670  -10.9972    1.0735  -11.0523    1.1759  -11.0126    1.1448  -11.0288    1.0592  -10.9427    1.1393  -10.9588    1.1837   -0.0002  -48.0000
  7.680  -10.9540    1.0668  -11.0089    1.1686  -10.9693    1.1378  -10.9855    1.0525  -10.8998    1.1323  -10.9158    1.1763   -0.0003  -48.0000
  7.690  -10.9109    1.0601  -10.9659    1.1613  -10.9262    1.1309  -10.9424    1.0460  -10.8572    1.1254  -10.8731    1.1690   -0.0003  -48.0000
  7.700  -10.8681    1.0535  -10.9230    1.1542  -10.8834    1.1240  -10.8995    1.0395  -10.8147    1.1185  -10.8306    1.1617   -0.0004  -48.0000
  7.710  -10.8256    1.0470  -10.8804    1.1471  -10.8408    1.1173  -10.8569    1.0331  -10.7725    1.1118  -10.7883    1.1546   -0.0004  -48.0000
  7.720  -10.7832    1.0406  -10.8380    1.1401  -10.7984    1.1106  -10.8145    1.0268  -10.7306    1.1051  -10.7462    1.1475   -0.0005  -48.0000
  7.730  -10.7411    1.0342  -10.7959    1.1331  -10.7562    1.1040  -10.7724    1.0205  -10.6888    1.0984  -10.7044    1.1405   -0.0006  -48.0000
  7.740  -10.6992    1.0279  -10.7539    1.1263  -10.7143    1.0974  -10.7304    1.0143  -10.6473    1.0919  -10.6628    1.1336   -0.0007  -48.0000
  7.750  -10.6575    1.0216  -10.7122    1.1195  -10.6726    1.0909  -10.6887    1.0082  -10.6059    1.0854  -10.6214    1.1267   -0.0008  -48.0000
  7.760  -10.6161    1.0155  -10.6707    1.1128  -10.6311    1.0845  -10.6472    1.0021  -10.5648    1.0789  -10.5802    1.1199   -0.0010  -48.0000
  7.770  -10.5748    1.0094  -10.6295    1.1061  -10.5898    1.0782  -10.6059    0.9961  -10.5240    1.0726  -10.5392    1.1132   -0.0011  -48.0000
  7.780  -10.5338    1.0034  -10.5884    1.0995  -10.5488    1.0719  -10.5648    0.9902  -10.4833    1.0663  -10.4985    1.1066   -0.0013  -48.0000
  7.790  -10.4930    0.9974  -10.5476    1.0930  -10.5079    1.0657  -10.5239    0.9843  -10.4428    1.0600  -10.4579    1.1000   -0.0015  -48.0000
  7.800  -10.4524    0.9915  -10.5070    1.0866  -10.4673    1.0596  -10.4833    0.9785  -10.4025    1.0539  -10.4176    1.0935   -0.0017  -48.0000
  7.810  -10.4119    0.9857  -10.4666    1.0802  -10.4268    1.0535  -10.4428    0.9728  -10.3625    1.0478  -10.3775    1.0871   -0.0020  -48.0000
  7.820  -10.3717    0.9799  -10.4264    1.0739  -10.3866    1.0475  -10.4026    0.9671  -10.3226    1.0418  -10.3375    1.0807   -0.0023  -48.0000
  7.830  -10.3317    0.9742  -10.3864    1.0677  -10.3465    1.0416  -10.3625    0.9615  -10.2830    1.0358  -10.2978    1.0744   -0.0027  -48.0000
  7.840  -10.2919    0.9686  -10.3466    1.0615  -10.3067    1.0357  -10.3227    0.9559  -10.2435    1.0299  -10.2583    1.0682   -0.0031  -48.0000
  7.850  -10.2523    0.9630  -10.3070    1.0554  -10.2671    1.0299  -10.2830    0.9504  -10.2043    1.0241  -10.2189    1.0620   -0.0036  -48.0000
  7.860  -10.2129    0.9575  -10.2676    1.0493  -10.2276    1.0241  -10.2436    0.9450  -10.1652    1.0183  -10.1798    1.0560   -0.0042  -48.0000
  7.870  -10.1737    0.9520  -10.2284    1.0433  -10.1884    1.0184  -10.2043    0.9396  -10.1263    1.0126  -10.1408    1.0499   -0.0049  -48.0000
  7.880  -10.1347    0.9466  -10.1894    1.0374  -10.1493    1.0128  -10.1653    0.9343  -10.0876    1.0069  -10.1021    1.0440   -0.0056  -48.0000
  7.890  -10.0959    0.9413  -10.1506    1.0316  -10.1105    1.0072  -10.1264    0.9291  -10.0491    1.0013  -10.0635    1.0381   -0.0065  -48.0000
  7.900  -10.0572    0.9360  -10.1120    1.0258  -10.0718    1.0017  -10.0877    0.9239  -10.0108    0.9958  -10.0251    1.0322   -0.0075  -48.0000
  7.910  -10.0188    0.9308  -10.0736    1.0200  -10.0333    0.9962  -10.0492    0.9187   -9.9727    0.9903   -9.9869    1.0264   -0.0087  -48.0000
  7.920   -9.9805    0.9256  -10.0354    1.0144   -9.9950    0.9908  -10.0109    0.9136   -9.9347    0.9849   -9.9489    1.0207   -0.0100  -48.0000
  7.930   -9.9424    0.9205   -9.9973    1.0087   -9.9569    0.9855   -9.9728    0.9086   -9.8970    0.9795   -9.9111    1.0151   -0.0115  -48.0000
  7.940   -9.9045    0.9154   -9.9595    1.0032   -9.9189    0.9802   -9.9348    0.9036   -9.8594    0.9742   -9.8734    1.0095   -0.0132  -48.0000
  7.950   -9.8667    0.9104   -9.9218    0.9977   -9.8811    0.9750   -9.8971    0.8987   -9.8220    0.9689   -9.8359    1.0040   -0.0152  -48.0000
  7.960   -9.8292    0.9055   -9.8843    0.9922   -9.8435    0.9698   -9.8595    0.8939   -9.7847    0.9637   -9.7986    0.9985   -0.0174  -48.0000
  7.970   -9.7918    0.9006   -9.8470    0.9868   -9.8061    0.9647   -9.8221    0.8891   -9.7477    0.9586   -9.7615    0.9931   -0.0200  -48.0001
  7.980   -9.7546    0.8958   -9.8099    0.9815   -9.7689    0.9597   -9.7848    0.8843   -9.7108    0.9535   -9.7245    0.9877   -0.0230  -48.0001
  7.990   -9.7175    0.8910   -9.7729    0.9762   -9.7318    0.9547   -9.7477    0.8796   -9.6740    0.9485   -9.6877    0.9824   -0.0263  -48.0001
  8.000   -9.6806    0.8863   -9.7361    0.9710   -9.6949    0.9497   -9.7108    0.8750   -9.6375    0.9435   -9.6511    0.9772   -0.0301  -48.0001
  8.010   -9.6439    0.8816   -9.6995    0.9659   -9.6581    0.9448   -9.6741    0.8704   -9.6011    0.9386   -9.6147    0.9720   -0.0345  -48.0001
  8.020   -9.6074    0.8770   -9.6631    0.9607   -9.6215    0.9400   -9.6375    0.8658   -9.5649    0.9337   -9.5784    0.9669   -0.0394  -48.0001
  8.030   -9.5710    0.8725   -9.6268    0.9557   -9.5851    0.9352   -9.6011    0.8613   -9.5288    0.9289   -9.5422    0.9618   -0.0450  -48.0001
  8.040   -9.5347    0.8680   -9.5907    0.9507   -9.5488    0.9305   -9.5649    0.8569   -9.4929    0.9241   -9.5062    0.9568   -0.0514  -48.0001
  8.050   -9.4987    0.8635   -9.5547    0.9457   -9.5127    0.9258   -9.5288    0.8525   -9.4571    0.9194   -9.4704    0.9518   -0.0586  -48.0002
  8.060   -9.4627    0.8591   -9.5189    0.9408   -9.4768    0.9212   -9.4928    0.8482   -9.4215    0.9148   -9.4347    0.9469   -0.0667  -48.0002
  8.070   -9.4270    0.8548   -9.4833    0.9360   -9.4410    0.9166   -9.4570    0.8439   -9.3860    0.9102   -9.3992    0.9421   -0.0760  -48.0002
  8.080   -9.3914    0.8505   -9.4478    0.9312   -9.4053    0.9121   -9.4214    0.8396   -9.3507    0.9056   -9.3639    0.9373   -0.0864  -48.0003
  8.090   -9.3559    0.8462   -9.4125    0.9265   -9.3698    0.9076   -9.3859    0.8355   -9.3156    0.9011   -9.3287    0.9326   -0.0982  -48.0003
  8.100   -9.3206    0.8420   -9.3774    0.9218   -9.3345    0.9032   -9.3506    0.8313   -9.2806    0.8967   -9.2936    0.9279   -0.1115  -48.0003
  8.110   -9.2854    0.8379   -9.3424    0.9171   -9.2993    0.8989   -9.3154    0.8272   -9.2457    0.8923   -9.2587    0.9232   -0.1265  -48.0004
  8.120   -9.2504    0.8338   -9.3075    0.9125   -9.2642    0.8946   -9.2804    0.8232   -9.2110    0.8879   -9.2239    0.9187   -0.1434  -48.0004
  8.130   -9.2155    0.8297   -9.2728    0.9080   -9.2293    0.8903   -9.2455    0.8192   -9.1764    0.8836   -9.1893    0.9141   -0.1624  -48.0005
  8.140   -9.1807    0.8258   -9.2382    0.9035   -9.1945    0.8861   -9.2107    0.8153   -9.1420    0.8794   -9.1548    0.9097   -0.1838  -48.0006
  8.150   -9.1461    0.8218   -9.2038    0.8991   -9.1598    0.8820   -9.1761    0.8114   -9.1077    0.8752   -9.1204    0.9052   -0.2078  -48.0006
  8.160   -9.1116    0.8179   -9.1696    0.8947   -9.1253    0.8779   -9.1417    0.8076   -9.0735    0.8710   -9.0862    0.9009   -0.2348  -48.0007
  8.170   -9.0773    0.8141   -9.1354    0.8904   -9.0910    0.8738   -9.1073    0.8038   -9.0395    0.8669   -9.0521    0.8966   -0.2649  -48.0008
  8.180   -9.0431    0.8103   -9.1015    0.8861   -9.0567    0.8698   -9.0731    0.8001   -9.0056    0.8629   -9.0181    0.8923   -0.2988  -48.0009
  8.190   -9.0090    0.8066   -9.0676    0.8818   -9.0226    0.8659   -9.0390    0.7964   -8.9718    0.8589   -8.9843    0.8881   -0.3366  -48.0010
  8.200   -8.9750    0.8029   -9.0339    0.8776   -8.9886    0.8620   -9.0051    0.7927   -8.9382    0.8549   -8.9506    0.8839   -0.3788  -48.0012
  8.210   -8.9412    0.7992   -9.0003    0.8735   -8.9547    0.8581   -8.9713    0.7891   -8.9047    0.8510   -8.9170    0.8798   -0.4260  -48.0013
  8.220   -8.9075    0.7956   -8.9669    0.8694   -8.9210    0.8543   -8.9376    0.7856   -8.8713    0.8472   -8.8836    0.8758   -0.4787  -48.0015
  8.230   -8.8739    0.7921   -8.9336    0.8653   -8.8874    0.8506   -8.9040    0.7821   -8.8380    0.8434   -8.8503    0.8718   -0.5373  -48.0017
  8.240   -8.8404    0.7886   -8.9004    0.8613   -8.8539    0.8469   -8.8705    0.7787   -8.8048    0.8396   -8.8170    0.8678   -0.6026  -48.0019
  8.250   -8.8071    0.7852   -8.8673    0.8574   -8.8205    0.8432   -8.8372    0.7753   -8.7718    0.8359   -8.7840    0.8639   -0.6752  -48.0022
  8.260   -8.7738    0.7818   -8.8344    0.8535   -8.7872    0.8397   -8.8040    0.7719   -8.7389    0.8323   -8.7510    0.8601   -0.7558  -48.0025
  8.270   -8.7407    0.7785   -8.8016    0.8496   -8.7540    0.8361   -8.7709    0.7687   -8.7061    0.8287   -8.7181    0.8563   -0.8453  -48.0028
  8.280   -8.7077    0.7752   -8.7689    0.8458   -8.7210    0.8326   -8.7379    0.7654   -8.6734    0.8251   -8.6854    0.8525   -0.9445  -48.0031
  8.290   -8.6748    0.7720   -8.7363    0.8421   -8.6880    0.8292   -8.7050    0.7622   -8.6408    0.8216   -8.6527    0.8489   -1.0544  -48.0035
  8.300   -8.6420    0.7688   -8.7039    0.8384   -8.6552    0.8258   -8.6723    0.7591   -8.6083    0.8182   -8.6202    0.8452   -1.1759  -48.0039
  8.310   -8.6093    0.7657   -8.6716    0.8347   -8.6225    0.8225   -8.6396    0.7560   -8.5759    0.8148   -8.5878    0.8416   -1.3102  -48.0044
  8.320   -8.5766    0.7626   -8.6393    0.8311   -8.5898    0.8192   -8.6070    0.7530   -8.5437    0.8114   -8.5554    0.8381   -1.4585  -48.0050
  8.330   -8.5441    0.7596   -8.6072    0.8275   -8.5573    0.8160   -8.5746    0.7500   -8.5115    0.8082   -8.5232    0.8346   -1.6220  -48.0056
  8.340   -8.5117    0.7566   -8.5752    0.8240   -8.5248    0.8129   -8.5422    0.7471   -8.4794    0.8049   -8.4911    0.8312   -1.8022  -48.0062
  8.350   -8.4794    0.7537   -8.5433    0.8205   -8.4925    0.8098   -8.5100    0.7442   -8.4474    0.8017   -8.4591    0.8279   -2.0004  -48.0070
  8.360   -8.4472    0.7508   -8.5116    0.8171   -8.4602    0.8067   -8.4778    0.7414   -8.4155    0.7986   -8.4271    0.8245   -2.2184  -48.0078
  8.370   -8.4150    0.7480   -8.4799    0.8137   -8.4281    0.8037   -8.4457    0.7386   -8.3837    0.7955   -8.3953    0.8213   -2.4578  -48.0087
  8.380   -8.3830    0.7453   -8.4483    0.8104   -8.3960    0.8008   -8.4137    0.7359   -8.3520    0.7925   -8.3635    0.8181   -2.7204  -48.0097
  8.390   -8.3510    0.7426   -8.4168    0.8072   -8.3640    0.7979   -8.3819    0.7332   -8.3204    0.7895   -8.3318    0.8150   -3.0083  -48.0108
  8.400   -8.3191    0.7400   -8.3854    0.8039   -8.3321    0.7951   -8.3500    0.7306   -8.2888    0.7866   -8.3002    0.8119   -3.3235  -48.0120
  8.410   -8.2873    0.7374   -8.3542    0.8008   -8.3002    0.7923   -8.3183    0.7281   -8.2574    0.7837   -8.2687    0.8088   -3.6682  -48.0133
  8.420   -8.2556    0.7349   -8.3230    0.7976   -8.2684    0.7897   -8.2867    0.7256   -8.2260    0.7809   -8.2373    0.8059   -4.0448  -48.0148
  8.430   -8.2239    0.7325   -8.2919    0.7946   -8.2367    0.7870   -8.2551    0.7232   -8.1947    0.7782   -8.2059    0.8030   -4.4559  -48.0165
  8.440   -8.1923    0.7301   -8.2609    0.7916   -8.2051    0.7845   -8.2236    0.7208   -8.1634    0.7755   -8.1747    0.8001   -4.9043  -48.0183
  8.450   -8.1608    0.7278   -8.2299    0.7886   -8.1736    0.7820   -8.1922    0.7185   -8.1323    0.7729   -8.1435    0.7973   -5.3926  -48.0203
  8.460   -8.1293    0.7255   -8.1991    0.7857   -8.1421    0.7795   -8.1608    0.7163   -8.1012    0.7703   -8.1123    0.7946   -5.9242  -48.0224
  8.470   -8.0979    0.7233   -8.1683    0.7828   -8.1106    0.7771   -8.1295    0.7141   -8.0701    0.7678   -8.0812    0.7920   -6.5021  -48.0248
  8.480   -8.0666    0.7212   -8.1376    0.7800   -8.0792    0.7748   -8.0983    0.7120   -8.0392    0.7654   -8.0502    0.7894   -7.1299  -48.0274
  8.490   -8.0353    0.7192   -8.1070    0.7773   -8.0479    0.7726   -8.0671    0.7099   -8.0082    0.7630   -8.0192    0.7868   -7.8112  -48.0303
  8.500   -8.0040    0.7172   -8.0765    0.7746   -8.0166    0.7704   -8.0360    0.7080   -7.9774    0.7607   -7.9883    0.7844   -8.5499  -48.0335
  8.510   -7.9728    0.7153   -8.0461    0.7719   -7.9854    0.7684   -8.0049    0.7060   -7.9466    0.7585   -7.9575    0.7820   -9.3502  -48.0369
  8.520   -7.9417    0.7134   -8.0157    0.7694   -7.9542    0.7663   -7.9739    0.7042   -7.9158    0.7563   -7.9267    0.7797  -10.2164  -48.0406
  8.530   -7.9106    0.7117   -7.9853    0.7668   -7.9231    0.7644   -7.9429    0.7025   -7.8851    0.7542   -7.8959    0.7774  -11.1531  -48.0447
  8.540   -7.8795    0.7100   -7.9551    0.7644   -7.8919    0.7626   -7.9120    0.7008   -7.8544    0.7522   -7.8652    0.7753  -12.1653  -48.0492
  8.550   -7.8484    0.7084   -7.9249    0.7620   -7.8609    0.7608   -7.8811    0.6992   -7.8238    0.7502   -7.8345    0.7732  -13.2582  -48.0541
  8.560   -7.8174    0.7069   -7.8948    0.7596   -7.8298    0.7591   -7.8503    0.6976   -7.7932    0.7484   -7.8039    0.7711  -14.4373  -48.0594
  8.570   -7.7864    0.7055   -7.8647    0.7573   -7.7988    0.7575   -7.8195    0.6962   -7.7626    0.7466   -7.7733    0.7692  -15.7084  -48.0652
  8.580   -7.7555    0.7041   -7.8347    0.7551   -7.7678    0.7560   -7.7887    0.6948   -7.7320    0.7448   -7.7427    0.7674  -17.0776  -48.0714
  8.590   -7.7245    0.7029   -7.8047    0.7530   -7.7368    0.7546   -7.7579    0.6935   -7.7015    0.7432   -7.7121    0.7656  -18.5516  -48.0783
  8.600   -7.6935    0.7017   -7.7747    0.7509   -7.7058    0.7532   -7.7272    0.6924   -7.6710    0.7417   -7.6816    0.7639  -20.1373  -48.0857
  8.610   -7.6626    0.7006   -7.7449    0.7489   -7.6748    0.7520   -7.6965    0.6913   -7.6405    0.7402   -7.6511    0.7623  -21.8418  -48.0937
  8.620   -7.6317    0.6997   -7.7150    0.7469   -7.6439    0.7509   -7.6658    0.6903   -7.6100    0.7388   -7.6205    0.7608  -23.6731  -48.1024
  8.630   -7.6007    0.6988   -7.6852    0.7451   -7.6129    0.7499   -7.6351    0.6894   -7.5795    0.7376   -7.5900    0.7594  -25.6392  -48.1118
  8.640   -7.5698    0.6981   -7.6554    0.7433   -7.5819    0.7490   -7.6044    0.6886   -7.5491    0.7364   -7.5595    0.7581  -27.7486  -48.1220
  8.650   -7.5388    0.6975   -7.6257    0.7416   -7.5509    0.7482   -7.5737    0.6879   -7.5186    0.7353   -7.5290    0.7569  -30.0106  -48.1330
  8.660   -7.5078    0.6970   -7.5960    0.7399   -7.5199    0.7476   -7.5430    0.6874   -7.4881    0.7344   -7.4985    0.7558  -32.4346  -48.1450
  8.670   -7.4768    0.6966   -7.5663    0.7384   -7.4889    0.7470   -7.5123    0.6869   -7.4576    0.7335   -7.4679    0.7549  -35.0306  -48.1578
  8.680   -7.4458    0.6964   -7.5366    0.7369   -7.4578    0.7466   -7.4815    0.6866   -7.4271    0.7328   -7.4374    0.7540  -37.8091  -48.1717
  8.690   -7.4147    0.6962   -7.5069    0.7355   -7.4267    0.7463   -7.4508    0.6864   -7.3965    0.7322   -7.4068    0.7533  -40.7811  -48.1867
  8.700   -7.3836    0.6963   -7.4773    0.7342   -7.3955    0.7462   -7.4200    0.6863   -7.3659    0.7317   -7.3762    0.7527  -43.9580  -48.2029
  8.710   -7.3524    0.6964   -7.4476    0.7330   -7.3643    0.7463   -7.3892    0.6864   -7.3353    0.7314   -7.3455    0.7522  -47.3518  -48.2203
  8.720   -7.3212    0.6968   -7.4180    0.7319   -7.3331    0.7464   -7.3583    0.6866   -7.3046    0.7312   -7.3149    0.7518  -50.9748  -48.2390
  8.730   -7.2899    0.6973   -7.3883    0.7309   -7.3018    0.7468   -7.3274    0.6870   -7.2739    0.7311   -7.2841    0.7517  -54.8398  -48.2592
  8.740   -7.2586    0.6980   -7.3587    0.7299   -7.2704    0.7473   -7.2965    0.6875   -7.2432    0.7312   -7.2533    0.7516  -58.9600  -48.2808
  8.750   -7.2272    0.6988   -7.3290    0.7291   -7.2390    0.7480   -7.2655    0.6883   -7.2123    0.7314   -7.2225    0.7517  -63.3487  -48.3041
  8.760   -7.1956    0.6999   -7.2993    0.7285   -7.2074    0.7490   -7.2344    0.6891   -7.1814    0.7318   -7.1915    0.7520  -68.0199  -48.3291
  8.770   -7.1640    0.7011   -7.2696    0.7279   -7.1758    0.7501   -7.2033    0.6902   -7.1505    0.7324   -7.1605    0.7525  -72.9876  -48.3559
  8.780   -7.1323    0.7026   -7.2399    0.7274   -7.1441    0.7514   -7.1720    0.6915   -7.1194    0.7332   -7.1295    0.7532  -78.2658  -48.3847
  8.790   -7.1005    0.7043   -7.2102    0.7271   -7.1122    0.7530   -7.1407    0.6930   -7.0882    0.7342   -7.0983    0.7540  -83.8688  -48.4155
  8.800   -7.0686    0.7062   -7.1804    0.7269   -7.0803    0.7548   -7.1093    0.6947   -7.0570    0.7353   -7.0670    0.7551  -89.8108  -48.4485
  8.810   -7.0365    0.7084   -7.1505    0.7268   -7.0482    0.7568   -7.0778    0.6966   -7.0256    0.7367   -7.0356    0.7564  -96.1061  -48.4838
  8.820   -7.0043    0.7108   -7.1206    0.7269   -7.0160    0.7591   -7.0462    0.6988   -6.9941    0.7384   -7.0041    0.7579 -102.7684  -48.5216
  8.830   -6.9720    0.7136   -7.0907    0.7272   -6.9836    0.7618   -7.0145    0.7013   -6.9625    0.7403   -6.9725    0.7597 -109.8116  -48.5619
  8.840   -6.9395    0.7166   -7.0606    0.7276   -6.9511    0.7647   -6.9826    0.7040   -6.9308    0.7424   -6.9407    0.7617 -117.2488  -48.6050
  8.850   -6.9068    0.7200   -7.0306    0.7281   -6.9184    0.7680   -6.9506    0.7071   -6.8989    0.7448   -6.9088    0.7641 -125.0928  -48.6510
  8.860   -6.8740    0.7237   -7.0004    0.7289   -6.8855    0.7716   -6.9185    0.7104   -6.8668    0.7476   -6.8767    0.7667 -133.3559  -48.7000
  8.870   -6.8410    0.7278   -6.9702    0.7298   -6.8525    0.7756   -6.8862    0.7141   -6.8346    0.7506   -6.8445    0.7696 -142.0495  -48.7522
  8.880   -6.8077    0.7323   -6.9398    0.7309   -6.8193    0.7800   -6.8538    0.7182   -6.8022    0.7540   -6.8121    0.7729 -151.1846  -48.8078
  8.890   -6.7743    0.7372   -6.9094    0.7322   -6.7858    0.7848   -6.8212    0.7226   -6.7696    0.7577   -6.7794    0.7765 -160.7711  -48.8669
  8.900   -6.7406    0.7426   -6.8788    0.7338   -6.7522    0.7901   -6.7884    0.7275   -6.7368    0.7619   -6.7466    0.7806 -170.8180  -48.9296
  8.910   -6.7067    0.7484   -6.8482    0.7355   -6.7183    0.7958   -6.7554    0.7328   -6.7038    0.7664   -6.7136    0.7850 -181.3336  -48.9963
  8.920   -6.6726    0.7548   -6.8174    0.7376   -6.6842    0.8021   -6.7222    0.7386   -6.6706    0.7714   -6.6804    0.7899 -192.3249  -49.0669
  8.930   -6.6382    0.7617   -6.7865    0.7398   -6.6498    0.8090   -6.6888    0.7449   -6.6371    0.7769   -6.6469    0.7953 -203.7981  -49.1418
  8.940   -6.6035    0.7693   -6.7554    0.7424   -6.6152    0.8165   -6.6552    0.7517   -6.6034    0.7829   -6.6132    0.8012 -215.7582  -49.2211
  8.950   -6.5686    0.7775   -6.7242    0.7452   -6.5803    0.8247   -6.6214    0.7591   -6.5694    0.7894   -6.5793    0.8076 -228.2091  -49.3050
  8.960   -6.5334    0.7864   -6.6928    0.7484   -6.5451    0.8335   -6.5874    0.7672   -6.5352    0.7965   -6.5451    0.8146 -241.1534  -49.3936
  8.970   -6.4979    0.7961   -6.6613    0.7519   -6.5096    0.8432   -6.5531    0.7759   -6.5007    0.8043   -6.5106    0.8223 -254.5928  -49.4872
  8.980   -6.4621    0.8067   -6.6295    0.7557   -6.4739    0.8537   -6.5186    0.7854   -6.4659    0.8128   -6.4758    0.8307 -268.5274  -49.5859
  8.990   -6.4260    0.8181   -6.5976    0.7600   -6.4379    0.8651   -6.4838    0.7957   -6.4309    0.8221   -6.4407    0.8399 -282.9560  -49.6898
  9.000   -6.3896    0.8305   -6.5655    0.7646   -6.4016    0.8775   -6.4488    0.8068   -6.3955    0.8321   -6.4054    0.8499 -297.8761  -49.7993
  9.010   -6.3529    0.8440   -6.5332    0.7696   -6.3650    0.8909   -6.4136    0.8189   -6.3599    0.8431   -6.3697    0.8607 -313.2832  -49.9144
  9.020   -6.3159    0.8586   -6.5006    0.7752   -6.3281    0.9056   -6.3782    0.8320   -6.3239    0.8550   -6.3338    0.8726 -329.1712  -50.0354
  9.030   -6.2786    0.8745   -6.4678    0.7812   -6.2910    0.9214   -6.3426    0.8462   -6.2876    0.8680   -6.2975    0.8854 -345.5319  -50.1624
  9.040   -6.2411    0.8917   -6.4347    0.7878   -6.2537    0.9387   -6.3068    0.8616   -6.2511    0.8821   -6.2610    0.8995 -362.3547  -50.2956
  9.050   -6.2033    0.9105   -6.4014    0.7949   -6.2161    0.9575   -6.2708    0.8783   -6.2143    0.8975   -6.2242    0.9148 -379.6264  -50.4351
  9.060   -6.1653    0.9309   -6.3679    0.8027   -6.1784    0.9779   -6.2347    0.8964   -6.1772    0.9142   -6.1872    0.9314 -397.3304  -50.5811
  9.070   -6.1272    0.9531   -6.3340    0.8111   -6.1406    1.0001   -6.1985    0.9161   -6.1399    0.9325   -6.1499    0.9495 -415.4470  -50.7338
  9.080   -6.0890    0.9772   -6.2999    0.8202   -6.1027    1.0242   -6.1622    0.9374   -6.1024    0.9523   -6.1125    0.9693 -433.9522  -50.8932
  9.090   -6.0508    1.0034   -6.2655    0.8302   -6.0649    1.0504   -6.1261    0.9605   -6.0649    0.9739   -6.0749    0.9908 -452.8174  -51.0596
  9.100   -6.0127    1.0319   -6.2308    0.8409   -6.0273    1.0790   -6.0901    0.9856   -6.0272    0.9975   -6.0373    1.0142 -472.0094  -51.2331
  9.110   -5.9748    1.0630   -6.1958    0.8526   -5.9899    1.1100   -6.0543    1.0127   -5.9896    1.0231   -5.9997    1.0398 -491.4888  -51.4137
  9.120   -5.9373    1.0968   -6.1606    0.8653   -5.9531    1.1437   -6.0190    1.0422   -5.9522    1.0511   -5.9623    1.0676 -511.2105  -51.6016
  9.130   -5.9005    1.1336   -6.1250    0.8791   -5.9169    1.1804   -5.9843    1.0742   -5.9150    1.0815   -5.9253    1.0980 -531.1227  -51.7968
  9.140   -5.8645    1.1735   -6.0891    0.8940   -5.8817    1.2202   -5.9504    1.1088   -5.8784    1.1146   -5.8887    1.1310 -551.1664  -51.9993
  9.150   -5.8297    1.2170   -6.0530    0.9103   -5.8478    1.2634   -5.9175    1.1463   -5.8425    1.1507   -5.8528    1.1670 -571.2753  -52.2093
  9.160   -5.7964    1.2642   -6.0166    0.9279   -5.8155    1.3103   -5.8861    1.1867   -5.8075    1.1899   -5.8180    1.2061 -591.3755  -52.4266
  9.170   -5.7653    1.3153   -5.9800    0.9470   -5.7855    1.3609   -5.8564    1.2304   -5.7740    1.2325   -5.7845    1.2485 -611.3853  -52.6513
  9.180   -5.7366    1.3706   -5.9432    0.9677   -5.7580    1.4155   -5.8289    1.2774   -5.7422    1.2786   -5.7528    1.2945 -631.2152  -52.8832
  9.190   -5.7113    1.4302   -5.9063    0.9903   -5.7340    1.4743   -5.8041    1.3278   -5.7126    1.3286   -5.7233    1.3443 -650.7685  -53.1224
  9.200   -5.6899    1.4942   -5.8694    1.0148   -5.7140    1.5372   -5.7827    1.3816   -5.6859    1.3824   -5.6967    1.3980 -669.9410  -53.3686
  9.210   -5.6734    1.5627   -5.8324    1.0415   -5.6989    1.6042   -5.7652    1.4389   -5.6626    1.4401   -5.6736    1.4556 -688.6225  -53.6216
  9.220   -5.6627    1.6354   -5.7956    1.0705   -5.6897    1.6751   -5.7525    1.4994   -5.6437    1.5018   -5.6547    1.5171 -706.6969  -53.8814
  9.230   -5.6591    1.7121   -5.7591    1.1020   -5.6874    1.7495   -5.7453    1.5628   -5.6298    1.5673   -5.6410    1.5824 -724.0438  -54.1474
  9.240   -5.6635    1.7922   -5.7229    1.1362   -5.6930    1.8268   -5.7444    1.6286   -5.6221    1.6362   -5.6333    1.6512 -740.5395  -54.4196
  9.250   -5.6773    1.8747   -5.6875    1.1735   -5.7076    1.9061   -5.7507    1.6962   -5.6213    1.7081   -5.6327    1.7228 -756.0583  -54.6974
  9.260   -5.7016    1.9586   -5.6530    1.2139   -5.7323    1.9862   -5.7649    1.7645   -5.6285    1.7820   -5.6400    1.7965 -770.4745  -54.9806
  9.270   -5.7374    2.0422   -5.6196    1.2579   -5.7677    2.0655   -5.7877    1.8325   -5.6445    1.8570   -5.6562    1.8712 -783.6642  -55.2686
  9.280   -5.7853    2.1235   -5.5879    1.3055   -5.8146    2.1423   -5.8193    1.8986   -5.6701    1.9316   -5.6819    1.9455 -795.5065  -55.5609
  9.290   -5.8459    2.2002   -5.5583    1.3571   -5.8729    2.2142   -5.8600    1.9613   -5.7057    2.0042   -5.7176    2.0178 -805.8865  -55.8571
  9.300   -5.9187    2.2698   -5.5313    1.4129   -5.9424    2.2792   -5.9093    2.0189   -5.7514    2.0731   -5.7634    2.0863 -814.6963  -56.1565
  9.310   -6.0030    2.3297   -5.5075    1.4730   -6.0220    2.3350   -5.9666    2.0698   -5.8066    2.1362   -5.8188    2.1491 -821.8377  -56.4585
  9.320   -6.0971    2.3774   -5.4878    1.5376   -6.1103    2.3793   -6.0306    2.1124   -5.8707    2.1918   -5.8829    2.2043 -827.2236  -56.7625
  9.330   -6.1986    2.4108   -5.4730    1.6066   -6.2051    2.4107   -6.0998    2.1456   -5.9421    2.2382   -5.9543    2.2502 -830.7800  -57.0678
  9.340   -6.3048    2.4285   -5.4641    1.6799   -6.3039    2.4278   -6.1723    2.1687   -6.0190    2.2742   -6.0312    2.2857 -832.4473  -57.3737
  9.350   -6.4124    2.4298   -5.4622    1.7572   -6.4040    2.4302   -6.2462    2.1814   -6.0994    2.2992   -6.1116    2.3102 -832.1822  -57.6795
  9.360   -6.5182    2.4150   -5.4685    1.8379   -6.5024    2.4183   -6.3196    2.1841   -6.1813    2.3129   -6.1933    2.3234 -829.9581  -57.9845
  9.370   -6.6192    2.3850   -5.4842    1.9212   -6.5969    2.3929   -6.3909    2.1775   -6.2626    2.3160   -6.2745    2.3260 -825.7665  -58.2880
  9.380   -6.7127    2.3418   -5.5104    2.0060   -6.6851    2.3556   -6.4589    2.1628   -6.3418    2.3091   -6.3535    2.3186 -819.6172  -58.5892
  9.390   -6.7971    2.2874   -5.5483    2.0906   -6.7657    2.3081   -6.5228    2.1412   -6.4177    2.2935   -6.4291    2.3025 -811.5385  -58.8874
  9.400   -6.8710    2.2243   -5.5987    2.1732   -6.8376    2.2524   -6.5821    2.1139   -6.4896    2.2704   -6.5006    2.2790 -801.5771  -59.1820
  9.410   -6.9341    2.1549   -5.6620    2.2513   -6.9004    2.1904   -6.6368    2.0820   -6.5571    2.2408   -6.5676    2.2490 -789.7974  -59.4722
  9.420   -6.9865    2.0813   -5.7380    2.3225   -6.9539    2.1239   -6.6872    2.0463   -6.6201    2.2057   -6.6302    2.2135 -776.2810  -59.7575
  9.430   -7.0286    2.0055   -5.8262    2.3841   -6.9986    2.0545   -6.7335    2.0074   -6.6786    2.1657   -6.6882    2.1732 -761.1250  -60.0372
  9.440   -7.0612    1.9290   -5.9249    2.4333   -7.0348    1.9832   -6.7761    1.9656   -6.7328    2.1212   -6.7419    2.1285 -744.4412  -60.3108
  9.450   -7.0853    1.8528   -6.0319    2.4680   -7.0632    1.9112   -6.8150    1.9210   -6.7825    2.0726   -6.7911    2.0797 -726.3539  -60.5777
  9.460   -7.1016    1.7777   -6.1445    2.4863   -7.0843    1.8392   -6.8503    1.8736   -6.8276    2.0200   -6.8357    2.0270 -706.9983  -60.8376
  9.470   -7.1110    1.7043   -6.2594    2.4872   -7.0987    1.7678   -6.8818    1.8235   -6.8678    1.9638   -6.8753    1.9708 -686.5182  -61.0898
  9.480   -7.1144    1.6331   -6.3730    2.4707   -7.1068    1.6975   -6.9092    1.7709   -6.9026    1.9043   -6.9097    1.9113 -665.0643  -61.3343
  9.490   -7.1123    1.5643   -6.4821    2.4374   -7.1092    1.6287   -6.9322    1.7160   -6.9318    1.8419   -6.9384    1.8490 -642.7914  -61.5705
  9.500   -7.1054    1.4981   -6.5838    2.3892   -7.1063    1.5618   -6.9504    1.6592   -6.9549    1.7775   -6.9611    1.7847 -619.8566  -61.7983
  9.510   -7.0942    1.4346   -6.6756    2.3280   -7.0985    1.4971   -6.9636    1.6012   -6.9718    1.7118   -6.9776    1.7192 -596.4171  -62.0174
  9.520   -7.0793    1.3741   -6.7558    2.2564   -7.0865    1.4349   -6.9717    1.5426   -6.9824    1.6455   -6.9880    1.6531 -572.6277  -62.2279
  9.530   -7.0609    1.3165   -6.8237    2.1772   -7.0705    1.3755   -6.9746    1.4839   -6.9870    1.5797   -6.9922    1.5874 -548.6395  -62.4295
  9.540   -7.0397    1.2619   -6.8790    2.0930   -7.0512    1.3190   -6.9727    1.4260   -6.9858    1.5149   -6.9908    1.5229 -524.5975  -62.6223
  9.550   -7.0160    1.2103   -6.9218    2.0060   -7.0290    1.2655   -6.9662    1.3693   -6.9793    1.4518   -6.9841    1.4600 -500.6392  -62.8063
  9.560   -6.9903    1.1617   -6.9531    1.9184   -7.0043    1.2150   -6.9555    1.3144   -6.9681    1.3911   -6.9727    1.3994 -476.8934  -62.9815
  9.570   -6.9628    1.1161   -6.9737    1.8317   -6.9775    1.1676   -6.9410    1.2615   -6.9526    1.3329   -6.9571    1.3415 -453.4788  -63.1482
  9.580   -6.9339    1.0734   -6.9848    1.7472   -6.9491    1.1232   -6.9233    1.2111   -6.9336    1.2777   -6.9380    1.2865 -430.5030  -63.3064
  9.590   -6.9040    1.0333   -6.9876    1.6659   -6.9194    1.0816   -6.9028    1.1631   -6.9115    1.2255   -6.9158    1.2345 -408.0623  -63.4563
  9.600   -6.8732    0.9959   -6.9832    1.5882   -6.8888    1.0428   -6.8799    1.1178   -6.8869    1.1765   -6.8912    1.1855 -386.2407  -63.5983
  9.610   -6.8418    0.9610   -6.9729    1.5148   -6.8574    1.0066   -6.8551    1.0751   -6.8603    1.1305   -6.8646    1.1397 -365.1100  -63.7325
  9.620   -6.8100    0.9284   -6.9574    1.4456   -6.8255    0.9729   -6.8288    1.0350   -6.8321    1.0874   -6.8363    1.0968 -344.7301  -63.8591
  9.630   -6.7780    0.8980   -6.9379    1.3808   -6.7933    0.9415   -6.8012    0.9974   -6.8027    1.0473   -6.8069    1.0568 -325.1486  -63.9786
  9.640   -6.7459    0.8696   -6.9150    1.3203   -6.7610    0.9123   -6.7726    0.9622   -6.7723    1.0099   -6.7765    1.0195 -306.4017  -64.0912
  9.650   -6.7138    0.8431   -6.8894    1.2639   -6.7287    0.8850   -6.7434    0.9293   -6.7413    0.9750   -6.7455    0.9847 -288.5146  -64.1973
  9.660   -6.6818    0.8184   -6.8617    1.2115   -6.6964    0.8595   -6.7137    0.8985   -6.7098    0.9426   -6.7140    0.9523 -271.5024  -64.2970
  9.670   -6.6500    0.7952   -6.8324    1.1628   -6.6644    0.8358   -6.6836    0.8698   -6.6782    0.9124   -6.6823    0.9222 -255.3704  -64.3909
  9.680   -6.6184    0.7736   -6.8019    1.1176   -6.6325    0.8136   -6.6534    0.8429   -6.6464    0.8843   -6.6506    0.8941 -240.1157  -64.4791
  9.690   -6.5872    0.7533   -6.7704    1.0756   -6.6010    0.7928   -6.6231    0.8179   -6.6146    0.8581   -6.6188    0.8680 -225.7275  -64.5621
  9.700   -6.5562    0.7343   -6.7384    1.0367   -6.5698    0.7733   -6.5928    0.7944   -6.5829    0.8336   -6.5871    0.8436 -212.1884  -64.6401
  9.710   -6.5256    0.7165   -6.7060    1.0005   -6.5389    0.7551   -6.5627    0.7724   -6.5515    0.8108   -6.5557    0.8208 -199.4754  -64.7134
  9.720   -6.4954    0.6997   -6.6734    0.9669   -6.5085    0.7380   -6.5327    0.7519   -6.5202    0.7895   -6.5245    0.7995 -187.5606  -64.7823
  9.730   -6.4655    0.6840   -6.6407    0.9357   -6.4784    0.7219   -6.5029    0.7326   -6.4893    0.7695   -6.4936    0.7796 -176.4123  -64.8471
  9.740   -6.4361    0.6692   -6.6080    0.9066   -6.4488    0.7068   -6.4734    0.7145   -6.4588    0.7509   -6.4630    0.7609 -165.9960  -64.9081
  9.750   -6.4071    0.6552   -6.5756    0.8795   -6.4195    0.6926   -6.4442    0.6975   -6.4286    0.7334   -6.4328    0.7434 -156.2749  -64.9656
  9.760   -6.3784    0.6420   -6.5433    0.8543   -6.3907    0.6791   -6.4153    0.6815   -6.3987    0.7169   -6.4030    0.7270 -147.2109  -65.0197
  9.770   -6.3501    0.6295   -6.5114    0.8307   -6.3622    0.6664   -6.3868    0.6664   -6.3693    0.7015   -6.3736    0.7116 -138.7651  -65.0706
  9.780   -6.3223    0.6177   -6.4797    0.8087   -6.3342    0.6544   -6.3586    0.6522   -6.3403    0.6869   -6.3446    0.6970 -130.8988  -65.1188
  9.790   -6.2948    0.6065   -6.4485    0.7881   -6.3066    0.6430   -6.3307    0.6388   -6.3116    0.6732   -6.3159    0.6833 -123.5733  -65.1642
  9.800   -6.2677    0.5959   -6.4176    0.7688   -6.2793    0.6322   -6.3032    0.6261   -6.2834    0.6603   -6.2877    0.6704 -116.7511  -65.2071
  9.810   -6.2410    0.5858   -6.3872    0.7506   -6.2525    0.6220   -6.2760    0.6141   -6.2556    0.6481   -6.2599    0.6582 -110.3957  -65.2476
  9.820   -6.2147    0.5763   -6.3571    0.7336   -6.2260    0.6122   -6.2492    0.6028   -6.2281    0.6365   -6.2325    0.6466 -104.4722  -65.2860
  9.830   -6.1887    0.5672   -6.3275    0.7176   -6.1999    0.6030   -6.2227    0.5920   -6.2011    0.6255   -6.2054    0.6356  -98.9473  -65.3224
  9.840   -6.1631    0.5585   -6.2983    0.7025   -6.1742    0.5941   -6.1966    0.5818   -6.1744    0.6152   -6.1788    0.6252  -93.7900  -65.3569
  9.850   -6.1378    0.5502   -6.2695    0.6883   -6.1488    0.5857   -6.1708    0.5721   -6.1482    0.6053   -6.1525    0.6153  -88.9707  -65.3896
  9.860   -6.1128    0.5423   -6.2412    0.6749   -6.1237    0.5777   -6.1453    0.5629   -6.1222    0.5959   -6.1266    0.6059  -84.4622  -65.4206
  9.870   -6.0882    0.5347   -6.2132    0.6622   -6.0990    0.5700   -6.1202    0.5541   -6.0967    0.5870   -6.1011    0.5970  -80.2394  -65.4501
  9.880   -6.0639    0.5275   -6.1857    0.6501   -6.0746    0.5626   -6.0954    0.5457   -6.0715    0.5785   -6.0759    0.5884  -76.2791  -65.4781
  9.890   -6.0399    0.5206   -6.1586    0.6387   -6.0505    0.5556   -6.0709    0.5376   -6.0466    0.5703   -6.0510    0.5803  -72.5601  -65.5048
  9.900   -6.0162    0.5139   -6.1319    0.6279   -6.0267    0.5488   -6.0467    0.5300   -6.0221    0.5626   -6.0265    0.5725  -69.0630  -65.5302
  9.910   -5.9928    0.5076   -6.1056    0.6177   -6.0032    0.5423   -6.0228    0.5227   -5.9979    0.5552   -6.0023    0.5651  -65.7704  -65.5543
  9.920   -5.9696    0.5015   -6.0796    0.6079   -5.9800    0.5361   -5.9992    0.5157   -5.9740    0.5481   -5.9784    0.5580  -62.6665  -65.5774
  9.930   -5.9468    0.4956   -6.0540    0.5986   -5.9571    0.5301   -5.9759    0.5089   -5.9504    0.5413   -5.9548    0.5511  -59.7371  -65.5993
  9.940   -5.9242    0.4899   -6.0288    0.5897   -5.9344    0.5243   -5.9529    0.5025   -5.9271    0.5347   -5.9315    0.5446  -56.9694  -65.6203
  9.950   -5.9019    0.4845   -6.0039    0.5813   -5.9120    0.5187   -5.9301    0.4963   -5.9041    0.5285   -5.9085    0.5383  -54.3520  -65.6402
  9.960   -5.8798    0.4792   -5.9793    0.5732   -5.8898    0.5134   -5.9076    0.4903   -5.8814    0.5225   -5.8858    0.5322  -51.8747  -65.6593
  9.970   -5.8579    0.4741   -5.9551    0.5655   -5.8679    0.5082   -5.8854    0.4846   -5.8589    0.5167   -5.8633    0.5264  -49.5284  -65.6775
  9.980   -5.8363    0.4692   -5.9312    0.5581   -5.8463    0.5032   -5.8633    0.4791   -5.8367    0.5111   -5.8411    0.5208  -47.3050  -65.6942
  9.990   -5.8149    0.4645   -5.9076    0.5510   -5.8248    0.4984   -5.8416    0.4738   -5.8148    0.5057   -5.8192    0.5154  -45.1973  -65.7135
 10.000   -5.7938    0.4599   -5.8843    0.5442   -5.8036    0.4937   -5.8200    0.4687   -5.7931    0.5005   -5.7975    0.5102  -43.1990  -65.7195
