# Macroscopic dielectric function obtained with the BS equation.
#  RPA L0 with KS energies and KS wavefunctions     LOCAL FIELD EFFECTS INCLUDED
# RESONANT-ONLY calculation
# Coulomb term constructed with full W(G1,G2)
# Scissor operator energy =  0.8000 [eV]
# Tolerance = -0.0010 0.0000
# npweps  = 113
# npwwfn  = 259
# nbands  = 8
# loband  = 2
# nkibz   = 3
# nkbz    = 8
# Lorentzian broadening =  0.0001 [eV]
# List of q-points for the optical limit:
# q =  0.938821, 0.000000, 0.000000, [Reduced coords] 
# q =  0.000000, 0.938821, 0.000000, [Reduced coords] 
# q =  0.000000, 0.000000, 0.938821, [Reduced coords] 
# q =  0.000000, 0.813043, 0.813043, [Reduced coords] 
# q =  0.813043, 0.000000, 0.813043, [Reduced coords] 
# q =  0.813043, 0.813043, 0.000000, [Reduced coords] 
# omega [eV]    RE(eps(q=1)) IM(eps(q=1) RE(eps(q=2) ) ... 
  0.000   54.7930    0.0000   54.7796    0.0000   54.7896    0.0000   54.7705    0.0000   54.8274    0.0000   54.8375    0.0000
  0.010   54.7936    0.0032   54.7802    0.0034   54.7901    0.0034   54.7710    0.0032   54.8279    0.0036   54.8381    0.0036
  0.020   54.7952    0.0064   54.7818    0.0069   54.7917    0.0069   54.7726    0.0064   54.8295    0.0072   54.8397    0.0072
  0.030   54.7978    0.0097   54.7844    0.0103   54.7944    0.0103   54.7753    0.0096   54.8322    0.0107   54.8424    0.0108
  0.040   54.8016    0.0129   54.7882    0.0138   54.7981    0.0138   54.7790    0.0128   54.8360    0.0143   54.8461    0.0144
  0.050   54.8064    0.0161   54.7930    0.0172   54.8029    0.0172   54.7838    0.0160   54.8408    0.0179   54.8509    0.0180
  0.060   54.8122    0.0193   54.7988    0.0207   54.8088    0.0206   54.7897    0.0192   54.8467    0.0215   54.8568    0.0216
  0.070   54.8192    0.0225   54.8058    0.0241   54.8157    0.0241   54.7967    0.0224   54.8536    0.0251   54.8638    0.0252
  0.080   54.8272    0.0258   54.8138    0.0276   54.8238    0.0275   54.8047    0.0256   54.8616    0.0287   54.8718    0.0288
  0.090   54.8363    0.0290   54.8229    0.0310   54.8328    0.0310   54.8138    0.0288   54.8708    0.0323   54.8809    0.0324
  0.100   54.8465    0.0322   54.8330    0.0345   54.8430    0.0344   54.8239    0.0320   54.8809    0.0359   54.8911    0.0360
  0.110   54.8577    0.0355   54.8443    0.0379   54.8542    0.0379   54.8352    0.0352   54.8922    0.0395   54.9023    0.0396
  0.120   54.8700    0.0387   54.8566    0.0414   54.8665    0.0414   54.8475    0.0384   54.9045    0.0431   54.9147    0.0432
  0.130   54.8834    0.0420   54.8700    0.0449   54.8799    0.0448   54.8608    0.0416   54.9179    0.0467   54.9281    0.0468
  0.140   54.8979    0.0452   54.8844    0.0484   54.8944    0.0483   54.8753    0.0449   54.9324    0.0503   54.9426    0.0504
  0.150   54.9134    0.0485   54.9000    0.0518   54.9099    0.0518   54.8909    0.0481   54.9480    0.0540   54.9582    0.0541
  0.160   54.9301    0.0517   54.9166    0.0553   54.9266    0.0553   54.9075    0.0513   54.9647    0.0576   54.9748    0.0577
  0.170   54.9478    0.0550   54.9343    0.0588   54.9443    0.0588   54.9252    0.0546   54.9824    0.0612   54.9926    0.0614
  0.180   54.9666    0.0583   54.9531    0.0623   54.9631    0.0623   54.9440    0.0578   55.0013    0.0649   55.0114    0.0650
  0.190   54.9865    0.0615   54.9730    0.0658   54.9830    0.0658   54.9639    0.0611   55.0212    0.0685   55.0314    0.0687
  0.200   55.0075    0.0648   54.9939    0.0694   55.0040    0.0693   54.9849    0.0643   55.0422    0.0722   55.0524    0.0724
  0.210   55.0295    0.0681   55.0160    0.0729   55.0260    0.0728   55.0069    0.0676   55.0643    0.0759   55.0745    0.0760
  0.220   55.0527    0.0714   55.0392    0.0764   55.0492    0.0763   55.0301    0.0709   55.0876    0.0796   55.0977    0.0797
  0.230   55.0770    0.0748   55.0634    0.0800   55.0735    0.0799   55.0544    0.0742   55.1119    0.0832   55.1221    0.0834
  0.240   55.1024    0.0781   55.0888    0.0835   55.0988    0.0834   55.0797    0.0775   55.1373    0.0869   55.1475    0.0871
  0.250   55.1289    0.0814   55.1153    0.0871   55.1253    0.0870   55.1062    0.0808   55.1638    0.0907   55.1740    0.0908
  0.260   55.1565    0.0848   55.1429    0.0907   55.1529    0.0906   55.1338    0.0841   55.1915    0.0944   55.2017    0.0946
  0.270   55.1852    0.0881   55.1716    0.0942   55.1816    0.0941   55.1625    0.0874   55.2202    0.0981   55.2304    0.0983
  0.280   55.2150    0.0915   55.2014    0.0978   55.2114    0.0977   55.1923    0.0908   55.2501    0.1019   55.2603    0.1021
  0.290   55.2460    0.0948   55.2323    0.1014   55.2424    0.1013   55.2233    0.0941   55.2811    0.1056   55.2913    0.1058
  0.300   55.2780    0.0982   55.2644    0.1051   55.2745    0.1049   55.2553    0.0975   55.3133    0.1094   55.3235    0.1096
  0.310   55.3112    0.1016   55.2975    0.1087   55.3076    0.1086   55.2885    0.1009   55.3465    0.1132   55.3567    0.1134
  0.320   55.3456    0.1050   55.3319    0.1123   55.3420    0.1122   55.3228    0.1042   55.3809    0.1170   55.3911    0.1172
  0.330   55.3810    0.1085   55.3673    0.1160   55.3774    0.1159   55.3583    0.1076   55.4164    0.1208   55.4267    0.1210
  0.340   55.4177    0.1119   55.4039    0.1197   55.4140    0.1195   55.3949    0.1111   55.4531    0.1246   55.4634    0.1249
  0.350   55.4554    0.1153   55.4416    0.1234   55.4518    0.1232   55.4326    0.1145   55.4910    0.1284   55.5012    0.1287
  0.360   55.4943    0.1188   55.4805    0.1271   55.4907    0.1269   55.4715    0.1179   55.5299    0.1323   55.5402    0.1326
  0.370   55.5344    0.1223   55.5206    0.1308   55.5307    0.1306   55.5116    0.1214   55.5701    0.1362   55.5803    0.1364
  0.380   55.5756    0.1258   55.5618    0.1345   55.5720    0.1344   55.5528    0.1248   55.6114    0.1401   55.6216    0.1403
  0.390   55.6180    0.1293   55.6042    0.1383   55.6144    0.1381   55.5952    0.1283   55.6538    0.1440   55.6641    0.1443
  0.400   55.6616    0.1328   55.6477    0.1420   55.6579    0.1419   55.6387    0.1318   55.6975    0.1479   55.7078    0.1482
  0.410   55.7063    0.1364   55.6924    0.1458   55.7027    0.1457   55.6835    0.1353   55.7423    0.1518   55.7526    0.1521
  0.420   55.7523    0.1399   55.7383    0.1496   55.7486    0.1495   55.7294    0.1389   55.7883    0.1558   55.7986    0.1561
  0.430   55.7994    0.1435   55.7854    0.1535   55.7957    0.1533   55.7765    0.1424   55.8355    0.1598   55.8458    0.1601
  0.440   55.8477    0.1471   55.8337    0.1573   55.8440    0.1571   55.8248    0.1460   55.8839    0.1638   55.8943    0.1641
  0.450   55.8972    0.1507   55.8832    0.1612   55.8935    0.1610   55.8743    0.1496   55.9336    0.1678   55.9439    0.1681
  0.460   55.9480    0.1543   55.9339    0.1650   55.9442    0.1648   55.9250    0.1532   55.9844    0.1718   55.9947    0.1722
  0.470   55.9999    0.1580   55.9858    0.1689   55.9961    0.1687   55.9769    0.1568   56.0364    0.1759   56.0468    0.1762
  0.480   56.0531    0.1617   56.0390    0.1729   56.0493    0.1727   56.0301    0.1605   56.0897    0.1800   56.1000    0.1803
  0.490   56.1075    0.1653   56.0933    0.1768   56.1037    0.1766   56.0845    0.1641   56.1442    0.1841   56.1545    0.1845
  0.500   56.1631    0.1691   56.1489    0.1808   56.1593    0.1806   56.1401    0.1678   56.1999    0.1882   56.2103    0.1886
  0.510   56.2200    0.1728   56.2058    0.1848   56.2162    0.1846   56.1969    0.1715   56.2569    0.1924   56.2673    0.1928
  0.520   56.2781    0.1766   56.2639    0.1888   56.2743    0.1886   56.2551    0.1753   56.3151    0.1966   56.3255    0.1969
  0.530   56.3375    0.1803   56.3232    0.1928   56.3337    0.1926   56.3144    0.1790   56.3746    0.2008   56.3850    0.2012
  0.540   56.3982    0.1841   56.3839    0.1969   56.3943    0.1967   56.3751    0.1828   56.4354    0.2050   56.4458    0.2054
  0.550   56.4601    0.1880   56.4458    0.2010   56.4562    0.2007   56.4370    0.1866   56.4974    0.2092   56.5079    0.2097
  0.560   56.5233    0.1918   56.5089    0.2051   56.5194    0.2048   56.5002    0.1904   56.5608    0.2135   56.5712    0.2139
  0.570   56.5879    0.1957   56.5734    0.2092   56.5839    0.2090   56.5647    0.1943   56.6254    0.2178   56.6358    0.2183
  0.580   56.6537    0.1996   56.6392    0.2134   56.6497    0.2131   56.6305    0.1982   56.6913    0.2222   56.7018    0.2226
  0.590   56.7208    0.2035   56.7063    0.2176   56.7168    0.2173   56.6976    0.2021   56.7586    0.2266   56.7690    0.2270
  0.600   56.7893    0.2075   56.7747    0.2218   56.7853    0.2216   56.7660    0.2060   56.8272    0.2310   56.8376    0.2314
  0.610   56.8590    0.2115   56.8444    0.2261   56.8550    0.2258   56.8358    0.2100   56.8971    0.2354   56.9075    0.2358
  0.620   56.9301    0.2155   56.9155    0.2303   56.9261    0.2301   56.9068    0.2140   56.9683    0.2398   56.9788    0.2403
  0.630   57.0026    0.2195   56.9879    0.2346   56.9986    0.2344   56.9793    0.2180   57.0409    0.2443   57.0514    0.2448
  0.640   57.0764    0.2236   57.0617    0.2390   57.0724    0.2387   57.0531    0.2220   57.1149    0.2489   57.1254    0.2493
  0.650   57.1516    0.2277   57.1369    0.2434   57.1476    0.2431   57.1283    0.2261   57.1902    0.2534   57.2007    0.2539
  0.660   57.2282    0.2318   57.2134    0.2478   57.2241    0.2475   57.2048    0.2302   57.2669    0.2580   57.2775    0.2585
  0.670   57.3062    0.2360   57.2913    0.2522   57.3021    0.2519   57.2828    0.2344   57.3451    0.2626   57.3556    0.2631
  0.680   57.3856    0.2402   57.3707    0.2567   57.3814    0.2564   57.3621    0.2385   57.4246    0.2673   57.4351    0.2678
  0.690   57.4664    0.2444   57.4514    0.2612   57.4622    0.2609   57.4429    0.2427   57.5055    0.2720   57.5161    0.2725
  0.700   57.5486    0.2486   57.5336    0.2657   57.5444    0.2654   57.5251    0.2470   57.5879    0.2767   57.5985    0.2773
  0.710   57.6322    0.2529   57.6172    0.2703   57.6280    0.2700   57.6087    0.2512   57.6717    0.2815   57.6823    0.2820
  0.720   57.7173    0.2573   57.7022    0.2749   57.7131    0.2746   57.6938    0.2555   57.7569    0.2863   57.7675    0.2869
  0.730   57.8039    0.2616   57.7887    0.2796   57.7996    0.2793   57.7803    0.2599   57.8437    0.2912   57.8543    0.2917
  0.740   57.8919    0.2660   57.8767    0.2843   57.8876    0.2840   57.8683    0.2643   57.9319    0.2961   57.9425    0.2966
  0.750   57.9815    0.2705   57.9662    0.2890   57.9771    0.2887   57.9578    0.2687   58.0216    0.3010   58.0322    0.3016
  0.760   58.0725    0.2750   58.0572    0.2938   58.0681    0.2935   58.0488    0.2731   58.1128    0.3060   58.1234    0.3065
  0.770   58.1650    0.2795   58.1497    0.2986   58.1607    0.2983   58.1413    0.2776   58.2055    0.3110   58.2162    0.3116
  0.780   58.2591    0.2840   58.2437    0.3035   58.2547    0.3031   58.2354    0.2822   58.2997    0.3161   58.3104    0.3166
  0.790   58.3547    0.2886   58.3392    0.3084   58.3503    0.3080   58.3309    0.2867   58.3955    0.3212   58.4062    0.3217
  0.800   58.4519    0.2933   58.4364    0.3133   58.4474    0.3130   58.4281    0.2914   58.4929    0.3263   58.5036    0.3269
  0.810   58.5506    0.2979   58.5350    0.3183   58.5462    0.3180   58.5268    0.2960   58.5918    0.3315   58.6025    0.3321
  0.820   58.6510    0.3027   58.6353    0.3233   58.6465    0.3230   58.6271    0.3007   58.6923    0.3368   58.7031    0.3374
  0.830   58.7529    0.3074   58.7372    0.3284   58.7484    0.3281   58.7290    0.3055   58.7944    0.3421   58.8052    0.3427
  0.840   58.8565    0.3123   58.8407    0.3336   58.8519    0.3332   58.8325    0.3103   58.8982    0.3474   58.9090    0.3480
  0.850   58.9617    0.3171   58.9458    0.3387   58.9570    0.3384   58.9377    0.3151   59.0036    0.3528   59.0144    0.3534
  0.860   59.0685    0.3220   59.0526    0.3440   59.0639    0.3436   59.0445    0.3200   59.1106    0.3583   59.1215    0.3589
  0.870   59.1770    0.3270   59.1610    0.3492   59.1723    0.3489   59.1529    0.3249   59.2193    0.3638   59.2302    0.3644
  0.880   59.2872    0.3320   59.2711    0.3546   59.2825    0.3542   59.2631    0.3299   59.3297    0.3693   59.3406    0.3700
  0.890   59.3991    0.3370   59.3830    0.3600   59.3944    0.3596   59.3750    0.3350   59.4418    0.3749   59.4527    0.3756
  0.900   59.5127    0.3421   59.4965    0.3654   59.5079    0.3650   59.4885    0.3400   59.5557    0.3806   59.5666    0.3813
  0.910   59.6281    0.3473   59.6118    0.3709   59.6232    0.3705   59.6039    0.3452   59.6712    0.3863   59.6822    0.3870
  0.920   59.7452    0.3525   59.7288    0.3764   59.7403    0.3761   59.7209    0.3504   59.7886    0.3921   59.7995    0.3928
  0.930   59.8641    0.3578   59.8476    0.3821   59.8592    0.3817   59.8398    0.3556   59.9077    0.3980   59.9187    0.3987
  0.940   59.9847    0.3631   59.9683    0.3877   59.9798    0.3873   59.9604    0.3609   60.0286    0.4039   60.0396    0.4046
  0.950   60.1072    0.3685   60.0907    0.3935   60.1023    0.3931   60.0829    0.3663   60.1513    0.4098   60.1623    0.4106
  0.960   60.2316    0.3739   60.2149    0.3992   60.2266    0.3988   60.2072    0.3717   60.2759    0.4159   60.2869    0.4166
  0.970   60.3578    0.3794   60.3410    0.4051   60.3527    0.4047   60.3333    0.3772   60.4023    0.4220   60.4134    0.4227
  0.980   60.4858    0.3850   60.4690    0.4110   60.4807    0.4106   60.4613    0.3827   60.5307    0.4281   60.5417    0.4289
  0.990   60.6158    0.3906   60.5989    0.4170   60.6107    0.4166   60.5913    0.3883   60.6609    0.4344   60.6720    0.4351
  1.000   60.7477    0.3963   60.7307    0.4230   60.7425    0.4226   60.7231    0.3940   60.7930    0.4407   60.8041    0.4414
  1.010   60.8815    0.4020   60.8645    0.4291   60.8763    0.4287   60.8569    0.3997   60.9271    0.4471   60.9382    0.4478
  1.020   61.0173    0.4078   61.0002    0.4353   61.0121    0.4349   60.9927    0.4055   61.0632    0.4535   61.0743    0.4543
  1.030   61.1551    0.4137   61.1379    0.4416   61.1498    0.4412   61.1304    0.4114   61.2012    0.4600   61.2124    0.4608
  1.040   61.2949    0.4197   61.2776    0.4479   61.2896    0.4475   61.2702    0.4173   61.3413    0.4666   61.3525    0.4674
  1.050   61.4367    0.4257   61.4193    0.4543   61.4314    0.4539   61.4120    0.4233   61.4834    0.4733   61.4946    0.4741
  1.060   61.5806    0.4318   61.5632    0.4608   61.5752    0.4604   61.5558    0.4294   61.6276    0.4801   61.6389    0.4809
  1.070   61.7266    0.4379   61.7091    0.4673   61.7212    0.4669   61.7018    0.4356   61.7739    0.4869   61.7852    0.4877
  1.080   61.8747    0.4442   61.8571    0.4740   61.8692    0.4735   61.8499    0.4418   61.9223    0.4938   61.9336    0.4946
  1.090   62.0250    0.4505   62.0072    0.4807   62.0194    0.4802   62.0001    0.4481   62.0729    0.5008   62.0842    0.5017
  1.100   62.1774    0.4569   62.1596    0.4875   62.1718    0.4870   62.1525    0.4545   62.2256    0.5079   62.2369    0.5087
  1.110   62.3320    0.4634   62.3141    0.4944   62.3264    0.4939   62.3070    0.4609   62.3805    0.5151   62.3919    0.5159
  1.120   62.4889    0.4699   62.4708    0.5013   62.4832    0.5009   62.4638    0.4675   62.5377    0.5224   62.5491    0.5232
  1.130   62.6480    0.4766   62.6298    0.5084   62.6422    0.5079   62.6229    0.4741   62.6971    0.5297   62.7085    0.5306
  1.140   62.8094    0.4833   62.7911    0.5155   62.8036    0.5151   62.7843    0.4808   62.8588    0.5372   62.8703    0.5380
  1.150   62.9731    0.4901   62.9547    0.5228   62.9672    0.5223   62.9479    0.4876   63.0229    0.5447   63.0343    0.5456
  1.160   63.1391    0.4970   63.1207    0.5301   63.1332    0.5296   63.1139    0.4945   63.1893    0.5524   63.2008    0.5532
  1.170   63.3076    0.5040   63.2890    0.5375   63.3016    0.5370   63.2823    0.5015   63.3580    0.5601   63.3696    0.5610
  1.180   63.4784    0.5111   63.4597    0.5450   63.4724    0.5446   63.4531    0.5085   63.5292    0.5680   63.5408    0.5689
  1.190   63.6517    0.5182   63.6329    0.5527   63.6456    0.5522   63.6264    0.5157   63.7029    0.5759   63.7145    0.5768
  1.200   63.8275    0.5255   63.8086    0.5604   63.8214    0.5599   63.8021    0.5230   63.8790    0.5840   63.8906    0.5849
  1.210   64.0058    0.5329   63.9867    0.5682   63.9996    0.5677   63.9803    0.5304   64.0577    0.5922   64.0693    0.5931
  1.220   64.1866    0.5404   64.1675    0.5762   64.1804    0.5757   64.1611    0.5378   64.2389    0.6004   64.2505    0.6014
  1.230   64.3700    0.5479   64.3508    0.5842   64.3637    0.5837   64.3445    0.5454   64.4227    0.6088   64.4344    0.6098
  1.240   64.5561    0.5556   64.5367    0.5924   64.5497    0.5918   64.5305    0.5531   64.6091    0.6174   64.6208    0.6183
  1.250   64.7448    0.5634   64.7253    0.6006   64.7383    0.6001   64.7192    0.5609   64.7982    0.6260   64.8100    0.6269
  1.260   64.9362    0.5713   64.9165    0.6090   64.9297    0.6085   64.9105    0.5688   64.9900    0.6347   65.0018    0.6357
  1.270   65.1304    0.5793   65.1106    0.6175   65.1238    0.6170   65.1046    0.5768   65.1846    0.6436   65.1964    0.6446
  1.280   65.3273    0.5875   65.3074    0.6261   65.3206    0.6256   65.3015    0.5849   65.3819    0.6526   65.3938    0.6536
  1.290   65.5271    0.5957   65.5070    0.6349   65.5203    0.6344   65.5012    0.5932   65.5821    0.6618   65.5940    0.6627
  1.300   65.7297    0.6041   65.7095    0.6438   65.7229    0.6432   65.7038    0.6015   65.7852    0.6710   65.7971    0.6720
  1.310   65.9352    0.6126   65.9149    0.6528   65.9284    0.6523   65.9093    0.6100   65.9911    0.6804   66.0031    0.6814
  1.320   66.1437    0.6212   66.1232    0.6619   66.1368    0.6614   66.1178    0.6186   66.2001    0.6900   66.2121    0.6910
  1.330   66.3552    0.6300   66.3346    0.6712   66.3482    0.6707   66.3292    0.6274   66.4120    0.6997   66.4241    0.7007
  1.340   66.5698    0.6388   66.5490    0.6806   66.5627    0.6801   66.5437    0.6363   66.6270    0.7095   66.6391    0.7105
  1.350   66.7874    0.6479   66.7665    0.6902   66.7802    0.6897   66.7613    0.6453   66.8451    0.7195   66.8573    0.7205
  1.360   67.0082    0.6570   66.9871    0.6999   67.0009    0.6994   66.9820    0.6545   67.0664    0.7296   67.0786    0.7306
  1.370   67.2322    0.6663   67.2109    0.7098   67.2248    0.7092   67.2060    0.6638   67.2909    0.7399   67.3031    0.7409
  1.380   67.4594    0.6758   67.4380    0.7198   67.4520    0.7192   67.4332    0.6733   67.5186    0.7504   67.5308    0.7514
  1.390   67.6899    0.6854   67.6684    0.7300   67.6824    0.7294   67.6637    0.6829   67.7496    0.7610   67.7619    0.7620
  1.400   67.9238    0.6951   67.9021    0.7403   67.9162    0.7397   67.8975    0.6926   67.9840    0.7718   67.9964    0.7728
  1.410   68.1611    0.7050   68.1393    0.7508   68.1535    0.7502   68.1348    0.7026   68.2219    0.7828   68.2342    0.7838
  1.420   68.4019    0.7151   68.3799    0.7614   68.3941    0.7609   68.3755    0.7126   68.4632    0.7939   68.4756    0.7950
  1.430   68.6462    0.7254   68.6240    0.7723   68.6384    0.7717   68.6197    0.7229   68.7080    0.8052   68.7205    0.8063
  1.440   68.8941    0.7358   68.8717    0.7833   68.8862    0.7827   68.8676    0.7333   68.9565    0.8167   68.9689    0.8178
  1.450   69.1456    0.7463   69.1231    0.7945   69.1376    0.7939   69.1191    0.7439   69.2086    0.8284   69.2211    0.8295
  1.460   69.4009    0.7571   69.3781    0.8059   69.3928    0.8053   69.3743    0.7547   69.4644    0.8403   69.4769    0.8414
  1.470   69.6599    0.7680   69.6370    0.8175   69.6517    0.8169   69.6333    0.7656   69.7240    0.8524   69.7366    0.8535
  1.480   69.9228    0.7791   69.8997    0.8292   69.9144    0.8286   69.8961    0.7768   69.9875    0.8647   70.0001    0.8658
  1.490   70.1896    0.7905   70.1663    0.8412   70.1811    0.8406   70.1628    0.7881   70.2548    0.8772   70.2675    0.8783
  1.500   70.4603    0.8020   70.4368    0.8534   70.4518    0.8528   70.4336    0.7996   70.5262    0.8900   70.5390    0.8910
  1.510   70.7351    0.8137   70.7114    0.8658   70.7265    0.8652   70.7083    0.8114   70.8017    0.9029   70.8145    0.9040
  1.520   71.0141    0.8256   70.9902    0.8784   71.0053    0.8778   70.9872    0.8233   71.0812    0.9161   71.0941    0.9172
  1.530   71.2972    0.8377   71.2731    0.8912   71.2884    0.8906   71.2703    0.8355   71.3650    0.9295   71.3779    0.9306
  1.540   71.5846    0.8501   71.5603    0.9042   71.5757    0.9037   71.5577    0.8479   71.6531    0.9431   71.6661    0.9442
  1.550   71.8764    0.8626   71.8519    0.9175   71.8673    0.9169   71.8495    0.8605   71.9456    0.9570   71.9586    0.9581
  1.560   72.1726    0.8754   72.1479    0.9311   72.1634    0.9305   72.1456    0.8733   72.2425    0.9711   72.2555    0.9723
  1.570   72.4734    0.8885   72.4484    0.9448   72.4641    0.9442   72.4464    0.8864   72.5440    0.9855   72.5571    0.9867
  1.580   72.7787    0.9017   72.7536    0.9589   72.7693    0.9583   72.7517    0.8997   72.8500    1.0002   72.8632    1.0013
  1.590   73.0888    0.9153   73.0634    0.9731   73.0792    0.9725   73.0617    0.9132   73.1608    1.0151   73.1740    1.0163
  1.600   73.4037    0.9290   73.3780    0.9877   73.3939    0.9871   73.3765    0.9271   73.4764    1.0303   73.4897    1.0315
  1.610   73.7234    0.9431   73.6975    1.0025   73.7135    1.0019   73.6962    0.9411   73.7969    1.0458   73.8102    1.0470
  1.620   74.0481    0.9574   74.0220    1.0176   74.0381    1.0170   74.0209    0.9555   74.1224    1.0616   74.1358    1.0628
  1.630   74.3779    0.9719   74.3515    1.0330   74.3678    1.0324   74.3506    0.9701   74.4530    1.0777   74.4664    1.0789
  1.640   74.7129    0.9868   74.6862    1.0487   74.7026    1.0481   74.6856    0.9850   74.7888    1.0941   74.8023    1.0953
  1.650   75.0531    1.0019   75.0262    1.0647   75.0427    1.0641   75.0258    1.0003   75.1298    1.1109   75.1434    1.1120
  1.660   75.3988    1.0174   75.3716    1.0810   75.3882    1.0804   75.3714    1.0158   75.4763    1.1279   75.4900    1.1291
  1.670   75.7499    1.0331   75.7225    1.0976   75.7392    1.0970   75.7226    1.0316   75.8284    1.1453   75.8420    1.1465
  1.680   76.1067    1.0492   76.0790    1.1146   76.0958    1.1140   76.0793    1.0477   76.1860    1.1630   76.1997    1.1642
  1.690   76.4692    1.0656   76.4412    1.1319   76.4582    1.1313   76.4418    1.0642   76.5494    1.1811   76.5632    1.1823
  1.700   76.8375    1.0823   76.8093    1.1496   76.8264    1.1490   76.8101    1.0810   76.9187    1.1996   76.9325    1.2008
  1.710   77.2119    1.0994   77.1833    1.1676   77.2005    1.1670   77.1844    1.0982   77.2939    1.2184   77.3079    1.2196
  1.720   77.5923    1.1169   77.5634    1.1860   77.5808    1.1854   77.5649    1.1157   77.6753    1.2377   77.6893    1.2388
  1.730   77.9790    1.1347   77.9498    1.2047   77.9673    1.2041   77.9515    1.1336   78.0630    1.2573   78.0771    1.2585
  1.740   78.3720    1.1528   78.3425    1.2239   78.3602    1.2233   78.3446    1.1519   78.4570    1.2774   78.4712    1.2785
  1.750   78.7716    1.1714   78.7418    1.2435   78.7596    1.2429   78.7441    1.1705   78.8576    1.2978   78.8719    1.2990
  1.760   79.1778    1.1903   79.1477    1.2634   79.1656    1.2628   79.1504    1.1896   79.2649    1.3187   79.2792    1.3199
  1.770   79.5909    1.2097   79.5604    1.2839   79.5785    1.2833   79.5634    1.2091   79.6790    1.3401   79.6934    1.3413
  1.780   80.0109    1.2295   79.9801    1.3047   79.9983    1.3041   79.9834    1.2290   80.1001    1.3619   80.1145    1.3631
  1.790   80.4380    1.2497   80.4068    1.3260   80.4252    1.3254   80.4105    1.2493   80.5283    1.3842   80.5428    1.3854
  1.800   80.8724    1.2704   80.8409    1.3478   80.8594    1.3472   80.8449    1.2701   80.9638    1.4070   80.9785    1.4082
  1.810   81.3142    1.2916   81.2823    1.3701   81.3010    1.3695   81.2868    1.2914   81.4069    1.4303   81.4215    1.4315
  1.820   81.7637    1.3132   81.7314    1.3929   81.7503    1.3923   81.7362    1.3132   81.8575    1.4542   81.8723    1.4554
  1.830   82.2210    1.3353   82.1883    1.4161   82.2073    1.4156   82.1935    1.3354   82.3160    1.4786   82.3309    1.4797
  1.840   82.6862    1.3579   82.6532    1.4400   82.6724    1.4394   82.6588    1.3582   82.7825    1.5035   82.7975    1.5047
  1.850   83.1597    1.3811   83.1263    1.4643   83.1456    1.4638   83.1323    1.3815   83.2572    1.5290   83.2723    1.5302
  1.860   83.6415    1.4048   83.6077    1.4893   83.6272    1.4887   83.6141    1.4054   83.7404    1.5551   83.7555    1.5563
  1.870   84.1319    1.4291   84.0977    1.5148   84.1173    1.5142   84.1046    1.4298   84.2321    1.5819   84.2473    1.5830
  1.880   84.6311    1.4539   84.5964    1.5409   84.6163    1.5404   84.6038    1.4548   84.7327    1.6092   84.7480    1.6104
  1.890   85.1393    1.4793   85.1042    1.5677   85.1242    1.5672   85.1121    1.4805   85.2423    1.6373   85.2577    1.6384
  1.900   85.6568    1.5054   85.6212    1.5951   85.6414    1.5946   85.6296    1.5067   85.7612    1.6660   85.7767    1.6671
  1.910   86.1837    1.5321   86.1477    1.6232   86.1681    1.6227   86.1565    1.5336   86.2896    1.6954   86.3052    1.6965
  1.920   86.7203    1.5595   86.6838    1.6520   86.7044    1.6514   86.6932    1.5612   86.8277    1.7255   86.8434    1.7266
  1.930   87.2669    1.5875   87.2300    1.6815   87.2508    1.6809   87.2399    1.5895   87.3758    1.7564   87.3917    1.7575
  1.940   87.8238    1.6163   87.7863    1.7117   87.8073    1.7112   87.7968    1.6185   87.9343    1.7881   87.9502    1.7892
  1.950   88.3911    1.6458   88.3531    1.7427   88.3743    1.7422   88.3642    1.6482   88.5032    1.8205   88.5193    1.8216
  1.960   88.9692    1.6761   88.9307    1.7745   88.9521    1.7740   88.9424    1.6787   89.0830    1.8538   89.0991    1.8549
  1.970   89.5584    1.7071   89.5193    1.8071   89.5410    1.8066   89.5317    1.7100   89.6738    1.8880   89.6901    1.8891
  1.980   90.1589    1.7390   90.1193    1.8406   90.1412    1.8401   90.1323    1.7422   90.2761    1.9231   90.2925    1.9242
  1.990   90.7711    1.7717   90.7309    1.8749   90.7530    1.8744   90.7446    1.7752   90.8901    1.9591   90.9066    1.9601
  2.000   91.3953    1.8053   91.3546    1.9102   91.3769    1.9097   91.3689    1.8091   91.5161    1.9960   91.5328    1.9971
  2.010   92.0318    1.8398   91.9905    1.9464   92.0131    1.9459   92.0056    1.8439   92.1546    2.0340   92.1713    2.0350
  2.020   92.6810    1.8752   92.6391    1.9836   92.6619    1.9832   92.6549    1.8797   92.8057    2.0730   92.8226    2.0740
  2.030   93.3433    1.9117   93.3007    2.0218   93.3238    2.0214   93.3173    1.9165   93.4699    2.1131   93.4870    2.1141
  2.040   94.0190    1.9491   93.9757    2.0611   93.9990    2.0607   93.9931    1.9543   94.1476    2.1543   94.1648    2.1553
  2.050   94.7084    1.9876   94.6645    2.1015   94.6881    2.1011   94.6828    1.9931   94.8392    2.1966   94.8565    2.1976
  2.060   95.4121    2.0272   95.3675    2.1430   95.3914    2.1427   95.3866    2.0331   95.5450    2.2401   95.5625    2.2411
  2.070   96.1304    2.0680   96.0851    2.1858   96.1093    2.1854   96.1051    2.0743   96.2656    2.2850   96.2832    2.2859
  2.080   96.8638    2.1099   96.8178    2.2297   96.8422    2.2294   96.8387    2.1167   97.0012    2.3311   97.0190    2.3320
  2.090   97.6127    2.1531   97.5660    2.2750   97.5907    2.2747   97.5879    2.1603   97.7525    2.3785   97.7704    2.3794
  2.100   98.3776    2.1976   98.3301    2.3216   98.3551    2.3213   98.3530    2.2052   98.5198    2.4274   98.5379    2.4283
  2.110   99.1590    2.2434   99.1107    2.3696   99.1360    2.3693   99.1347    2.2515   99.3037    2.4777   99.3219    2.4786
  2.120   99.9575    2.2906   99.9084    2.4190   99.9340    2.4188   99.9334    2.2993  100.1047    2.5296  100.1231    2.5304
  2.130  100.7735    2.3392  100.7235    2.4700  100.7494    2.4697  100.7496    2.3485  100.9233    2.5831  100.9419    2.5839
  2.140  101.6076    2.3894  101.5568    2.5225  101.5830    2.5223  101.5840    2.3992  101.7601    2.6382  101.7789    2.6390
  2.150  102.4604    2.4411  102.4087    2.5767  102.4353    2.5765  102.4372    2.4515  102.6157    2.6950  102.6347    2.6958
  2.160  103.3325    2.4945  103.2799    2.6326  103.3068    2.6324  103.3097    2.5056  103.4907    2.7537  103.5099    2.7544
  2.170  104.2246    2.5497  104.1710    2.6903  104.1983    2.6902  104.2021    2.5613  104.3858    2.8142  104.4051    2.8149
  2.180  105.1373    2.6066  105.0828    2.7499  105.1105    2.7497  105.1152    2.6190  105.3016    2.8768  105.3211    2.8774
  2.190  106.0714    2.6654  106.0158    2.8114  106.0439    2.8113  106.0497    2.6785  106.2388    2.9413  106.2585    2.9420
  2.200  107.0275    2.7262  106.9709    2.8749  106.9994    2.8749  107.0063    2.7400  107.1982    3.0081  107.2181    3.0087
  2.210  108.0065    2.7890  107.9488    2.9406  107.9776    2.9406  107.9857    2.8036  108.1805    3.0771  108.2007    3.0776
  2.220  109.0091    2.8540  108.9503    3.0086  108.9795    3.0086  108.9888    2.8694  109.1866    3.1484  109.2069    3.1489
  2.230  110.0362    2.9213  109.9762    3.0789  110.0059    3.0789  110.0164    2.9376  110.2172    3.2222  110.2378    3.2227
  2.240  111.0886    2.9909  111.0274    3.1516  111.0575    3.1517  111.0693    3.0081  111.2733    3.2986  111.2942    3.2990
  2.250  112.1673    3.0629  112.1049    3.2269  112.1355    3.2271  112.1486    3.0811  112.3559    3.3777  112.3770    3.3781
  2.260  113.2733    3.1376  113.2096    3.3049  113.2406    3.3051  113.2552    3.1568  113.4658    3.4596  113.4872    3.4599
  2.270  114.4076    3.2150  114.3425    3.3858  114.3741    3.3860  114.3902    3.2353  114.6042    3.5446  114.6258    3.5448
  2.280  115.5712    3.2953  115.5048    3.4696  115.5368    3.4699  115.5545    3.3166  115.7720    3.6326  115.7940    3.6328
  2.290  116.7653    3.3786  116.6975    3.5565  116.7300    3.5568  116.7493    3.4011  116.9705    3.7240  116.9927    3.7241
  2.300  117.9911    3.4650  117.9218    3.6467  117.9548    3.6471  117.9759    3.4888  118.2009    3.8188  118.2234    3.8189
  2.310  119.2499    3.5548  119.1790    3.7404  119.2126    3.7409  119.2355    3.5799  119.4643    3.9173  119.4871    3.9173
  2.320  120.5428    3.6481  120.4703    3.8377  120.5045    3.8382  120.5293    3.6745  120.7622    4.0196  120.7853    4.0195
  2.330  121.8715    3.7451  121.7973    3.9389  121.8320    3.9395  121.8589    3.7729  122.0958    4.1259  122.1193    4.1257
  2.340  123.2372    3.8460  123.1613    4.0440  123.1967    4.0447  123.2256    3.8753  123.4668    4.2365  123.4906    4.2363
  2.350  124.6416    3.9510  124.5638    4.1535  124.5999    4.1542  124.6311    3.9819  124.8767    4.3516  124.9008    4.3513
  2.360  126.0863    4.0603  126.0067    4.2674  126.0433    4.2683  126.0769    4.0929  126.3270    4.4715  126.3515    4.4710
  2.370  127.5730    4.1742  127.4914    4.3862  127.5288    4.3871  127.5648    4.2087  127.8196    4.5963  127.8445    4.5958
  2.380  129.1037    4.2930  129.0200    4.5099  129.0581    4.5109  129.0967    4.3293  129.3564    4.7265  129.3816    4.7259
  2.390  130.6801    4.4170  130.5943    4.6390  130.6331    4.6401  130.6744    4.4553  130.9391    4.8623  130.9648    4.8616
  2.400  132.3044    4.5463  132.2164    4.7737  132.2560    4.7749  132.3002    4.5867  132.5701    5.0041  132.5962    5.0033
  2.410  133.9788    4.6815  133.8884    4.9144  133.9288    4.9157  133.9761    4.7241  134.2514    5.1522  134.2779    5.1512
  2.420  135.7057    4.8228  135.6128    5.0614  135.6540    5.0628  135.7045    4.8678  135.9854    5.3069  136.0124    5.3059
  2.430  137.4873    4.9706  137.3919    5.2152  137.4340    5.2168  137.4879    5.0181  137.7745    5.4688  137.8020    5.4676
  2.440  139.3265    5.1253  139.2284    5.3762  139.2714    5.3778  139.3289    5.1755  139.6215    5.6383  139.6496    5.6370
  2.450  141.2261    5.2875  141.1251    5.5447  141.1690    5.5466  141.2304    5.3404  141.5292    5.8159  141.5578    5.8144
  2.460  143.1889    5.4574  143.0850    5.7215  143.1299    5.7234  143.1953    5.5134  143.5005    6.0020  143.5296    6.0004
  2.470  145.2182    5.6358  145.1112    5.9068  145.1571    5.9090  145.2268    5.6950  145.5388    6.1973  145.5685    6.1955
  2.480  147.3175    5.8231  147.2072    6.1015  147.2542    6.1038  147.3284    5.8857  147.6473    6.4024  147.6776    6.4004
  2.490  149.4903    6.0200  149.3765    6.3060  149.4247    6.3085  149.5037    6.0862  149.8299    6.6180  149.8608    6.6158
  2.500  151.7406    6.2272  151.6232    6.5212  151.6726    6.5239  151.7566    6.2972  152.0904    6.8448  152.1220    6.8424
  2.510  154.0726    6.4453  153.9514    6.7477  154.0020    6.7505  154.0915    6.5194  154.4331    7.0835  154.4654    7.0809
  2.520  156.4908    6.6753  156.3655    6.9863  156.4174    6.9894  156.5127    6.7537  156.8624    7.3352  156.8955    7.3324
  2.530  159.0000    6.9179  158.8704    7.2381  158.9237    7.2414  159.0251    7.0010  159.3834    7.6007  159.4173    7.5976
  2.540  161.6055    7.1741  161.4714    7.5039  161.5261    7.5075  161.6341    7.2622  162.0013    7.8811  162.0360    7.8778
  2.550  164.3128    7.4451  164.1739    7.7849  164.2301    7.7887  164.3451    7.5385  164.7216    8.1776  164.7572    8.1740
  2.560  167.1281    7.7318  166.9841    8.0822  167.0419    8.0864  167.1644    7.8311  167.5506    8.4914  167.5871    8.4875
  2.570  170.0579    8.0358  169.9085    8.3972  169.9680    8.4017  170.0985    8.1411  170.4948    8.8239  170.5323    8.8197
  2.580  173.1094    8.3582  172.9542    8.7313  173.0155    8.7362  173.1545    8.4702  173.5615    9.1766  173.6000    9.1721
  2.590  176.2902    8.7008  176.1288    9.0862  176.1921    9.0914  176.3402    8.8199  176.7583    9.5514  176.7979    9.5465
  2.600  179.6087    9.0652  179.4408    9.4635  179.5061    9.4692  179.6640    9.1920  180.0938    9.9500  180.1346    9.9448
  2.610  183.0741    9.4534  182.8992    9.8654  182.9666    9.8715  183.1351    9.5885  183.5771   10.3746  183.6192   10.3690
  2.620  186.6963    9.8675  186.5139   10.2940  186.5836   10.3005  186.7634   10.0116  187.2183   10.8276  187.2617   10.8215
  2.630  190.4861   10.3100  190.2958   10.7517  190.3679   10.7588  190.5599   10.4637  191.0283   11.3114  191.0731   11.3049
  2.640  194.4556   10.7834  194.2566   11.2413  194.3313   11.2489  194.5365   10.9476  195.0192   11.8291  195.0655   11.8221
  2.650  198.6177   11.2907  198.4095   11.7658  198.4870   11.7741  198.7064   11.4664  199.2040   12.3840  199.2520   12.3765
  2.660  202.9868   11.8355  202.7686   12.3289  202.8491   12.3379  203.0839   12.0236  203.5973   12.9798  203.6470   12.9716
  2.670  207.5788   12.4215  207.3498   12.9343  207.4334   12.9440  207.6849   12.6231  208.2150   13.6205  208.2666   13.6118
  2.680  212.4111   13.0530  212.1704   13.5864  212.2575   13.5970  212.5271   13.2693  213.0747   14.3110  213.1284   14.3016
  2.690  217.5030   13.7348  217.2496   14.2905  217.3404   14.3019  217.6297   13.9674  218.1960   15.0567  218.2519   15.0465
  2.700  222.8761   14.4727  222.6089   15.0520  222.7038   15.0645  223.0145   14.7230  223.6005   15.8635  223.6587   15.8526
  2.710  228.5543   15.2730  228.2721   15.8776  228.3712   15.8913  228.7054   15.5428  229.3123   16.7386  229.3732   16.7269
  2.720  234.5643   16.1431  234.2657   16.7749  234.3695   16.7897  234.7293   16.4343  235.3584   17.6900  235.4221   17.6774
  2.730  240.9360   17.0913  240.6194   17.7524  240.7283   17.7686  241.1163   17.4062  241.7689   18.7269  241.8356   18.7133
  2.740  247.7031   18.1275  247.3667   18.8201  247.4812   18.8380  247.9001   18.4688  248.5777   19.8600  248.6479   19.8453
  2.750  254.9035   19.2631  254.5452   19.9898  254.6659   20.0094  255.1188   19.6336  255.8231   21.1018  255.8970   21.0860
  2.760  262.5801   20.5113  262.1977   21.2749  262.3250   21.2965  262.8156   20.9144  263.5483   22.4669  263.6262   22.4498
  2.770  270.7817   21.8878  270.3724   22.6915  270.5070   22.7153  271.0395   22.3273  271.8024   23.9723  271.8849   23.9539
  2.780  279.5638   23.4109  279.1246   24.2583  279.2674   24.2846  279.8463   23.8914  280.6416   25.6382  280.7291   25.6184
  2.790  288.9903   25.1026  288.5175   25.9976  288.6693   26.0269  289.3001   25.6293  290.1299   27.4887  290.2230   27.4672
  2.800  299.1344   26.9890  298.6239   27.9361  298.7858   27.9687  299.4745   27.5679  300.3413   29.5523  300.4407   29.5291
  2.810  310.0811   29.1014  309.5279   30.1059  309.7010   30.1423  310.4550   29.7398  311.3612   31.8635  311.4676   31.8383
  2.820  321.9289   31.4780  321.3274   32.5456  321.5131   32.5866  322.3406   32.1843  323.2889   34.4641  323.4034   34.4368
  2.830  334.7933   34.1651  334.1365   35.3026  334.3364   35.3488  335.2473   34.9495  336.2406   37.4049  336.3642   37.3753
  2.840  348.8101   37.2199  348.0897   38.4350  348.3057   38.4874  349.3116   38.0946  350.3528   40.7488  350.4867   40.7167
  2.850  364.1400   40.7134  363.3461   42.0150  363.5805   42.0747  364.6950   41.6931  365.7871   44.5737  365.9329   44.5388
  2.860  380.9749   44.7346  380.0952   46.1330  380.3507   46.2016  381.5901   45.8373  382.7360   48.9773  382.8956   48.9394
  2.870  399.5450   49.3964  398.5647   50.9035  398.8446   50.9828  400.2286   50.6442  401.4306   54.0837  401.6064   54.0424
  2.880  420.1295   54.8434  419.0300   56.4735  419.3382   56.5658  420.8905   56.2641  422.1505   60.0518  422.3453   60.0071
  2.890  443.0694   61.2637  441.8274   63.0333  442.1688   63.1417  443.9183   62.8921  445.2368   67.0886  445.4542   67.0401
  2.900  468.7855   68.9052  467.3711   70.8340  467.7518   70.9625  469.7340   70.7858  471.1092   75.4667  471.3538   75.4143
  2.910  497.8016   78.0999  496.1766   80.2110  496.6040   80.3650  498.8631   80.2902  500.2893   85.5511  500.5668   85.4948
  2.920  530.7778   89.3001  528.8917   91.6210  529.3754   91.8080  531.9663   91.8760  533.4313   97.8398  533.7491   97.7799
  2.930  568.5542  103.1352  566.3398  105.6982  566.8920  105.9284  569.8839  106.1979  571.3640  113.0249  571.7323  112.9622
  2.940  612.2129  120.4993  609.5789  123.3422  610.2152  123.6304  613.6955  124.1870  615.1476  132.0899  615.5798  132.0262
  2.950  663.1628  142.6966  659.9823  145.8622  660.7232  146.2299  664.8026  147.2016  666.1494  156.4682  666.6640  156.4070
  2.960  723.2557  171.6835  719.3480  175.2175  720.2206  175.6973  725.0377  177.2801  726.1405  188.3070  726.7633  188.2552
  2.970  794.9365  210.4929  790.0384  214.4366  791.0780  215.0791  796.8021  217.5816  797.4072  230.9265  798.1757  230.8976
  2.980  881.4127  264.0017  875.1291  268.3726  876.3815  269.2604  883.2029  273.1824  882.8355  289.6437  883.8045  289.6639
  2.990  986.7453  340.3837  978.4681  345.1252  979.9888  346.3978  988.0702  352.5728  985.8078  373.3026  987.0597  373.4258
  3.000 1115.4739  453.9570 1104.2462  458.8086 1106.0886  460.7133 1115.3956  470.5603 1109.3664  497.1894 1111.0241  497.5297
  3.010 1270.3289  630.8764 1254.6432  635.0356 1256.8039  638.0276 1266.5693  653.9442 1252.7995  688.5267 1255.0358  689.3400
  3.020 1442.7610  919.9614 1420.3897  921.1946 1422.5949  926.1194 1429.7582  951.7444 1399.5973  995.5300 1402.5792  997.4120
  3.030 1578.1762 1406.7304 1546.8032 1399.1461 1547.7507 1407.3846 1543.3502 1445.7042 1479.2724 1492.4537 1482.7304 1496.7415
  3.040 1472.2925 2182.2337 1434.9586 2152.2104 1430.3249 2164.3890 1397.7492 2207.1526 1279.7188 2220.1211 1281.0853 2228.7608
  3.050  678.1158 3029.3781  664.0790 2963.8578  647.6170 2972.4741  584.4888 2988.6664  460.4993 2894.0759  453.2855 2904.0010
  3.060 -712.7503 3020.6621 -669.1464 2966.8795 -686.7968 2959.2557 -745.1121 2929.7985 -749.6982 2783.3084 -761.8178 2783.3836
  3.070 ********* 2134.9118 ********* 2130.3553 ********* 2117.4477 ********* 2069.6876 ********* 1993.5229 ********* 1987.5939
  3.080 ********* 1343.5572 ********* 1355.7581 ********* 1346.7967 ********* 1309.9730 ********* 1286.7495 ********* 1281.6585
  3.090 *********  865.9954 *********  876.6090 *********  871.2260 *********  847.7414 *********  844.0674 *********  840.7324
  3.100 *********  594.5338 *********  599.8142 *********  596.4066 *********  581.1091 *********  583.0648 *********  581.0558
  3.110 *********  433.9052 *********  435.8453 *********  433.0214 *********  421.2753 *********  425.0617 *********  423.9836
  3.120 -963.0552  294.3448 -954.6942  303.4765 -952.2886  301.2524 -940.4549  294.4200 -927.9010  300.7263 -927.4724  299.8687
  3.130 -836.0432  213.0571 -833.4986  221.1272 -831.4902  220.0299 -822.2087  217.2537 -814.2456  222.3793 -813.9078  221.7119
  3.140 -739.3251  165.5710 -738.7244  171.4267 -737.1537  170.7198 -729.9880  169.4141 -724.4097  173.4609 -724.1021  172.9121
  3.150 -662.6358  132.1147 -662.7629  136.4415 -661.4760  135.9300 -655.7403  135.3620 -651.6838  138.6056 -651.3978  138.1604
  3.160 -599.5596  107.2783 -599.9974  110.5586 -598.9080  110.1671 -594.2095  110.0325 -591.1978  112.6526 -590.9347  112.2908
  3.170 -546.5550   88.3249 -547.1299   90.8629 -546.1853   90.5518 -542.2766   90.6863 -540.0102   92.8114 -539.7698   92.5150
  3.180 -501.3202   73.5494 -501.9514   75.5438 -501.1165   75.2890 -497.8285   75.5933 -496.1081   77.3202 -495.8888   77.0752
  3.190 -462.2289   61.8191 -462.8768   63.4048 -462.1263   63.1907 -459.3378   63.6015 -458.0258   65.0049 -457.8254   64.8006
  3.200 -428.0796   52.3557 -428.7246   53.6278 -428.0399   53.4439 -425.6607   53.9190 -424.6596   55.0573 -424.4759   54.8857
  3.210 -397.9594   44.6109 -398.5922   45.6381 -397.9589   45.4768 -395.9208   45.9879 -395.1595   46.9071 -394.9904   46.7621
  3.220 -371.1595   38.1898 -371.7766   39.0231 -371.1830   38.8791 -369.4333   39.4062 -368.8593   40.1432 -368.7029   40.0202
  3.230 -347.1194   32.8028 -347.7205   33.4808 -347.1573   33.3501 -345.6546   33.8790 -345.2281   34.4635 -345.0829   34.3590
  3.240 -325.3887   28.2338 -325.9755   28.7863 -325.4344   28.6659 -324.1464   29.1861 -323.8367   29.6424 -323.7013   29.5535
  3.250 -305.5995   24.3191 -306.1747   24.7696 -305.6486   24.6573 -304.5494   25.1606 -304.3324   25.5088 -304.2056   25.4334
  3.260 -287.4458   20.9332 -288.0131   21.3005 -287.4954   21.1944 -286.5644   21.6744 -286.4208   21.9313 -286.3018   21.8676
  3.270 -270.6686   17.9789 -271.2324   18.2782 -270.7167   18.1771 -269.9376   18.6281 -269.8515   18.8080 -269.7396   18.7547
  3.280 -255.0436   15.3803 -255.6092   15.6243 -255.0889   15.5271 -254.4487   15.9440 -254.4069   16.0596 -254.3016   16.0154
  3.290 -240.3714   13.0784 -240.9451   13.2778 -240.4130   13.1840 -239.9018   13.5614 -239.8924   13.6241 -239.7935   13.5882
  3.300 -226.4686   11.0277 -227.0578   11.1918 -226.5062   11.1012 -226.1161   11.4333 -226.1284   11.4542 -226.0360   11.4257
  3.310 -213.1594    9.1946 -213.7734    9.3318 -213.1928    9.2444 -212.9182    9.5247 -212.9415    9.5151 -212.8562    9.4932
  3.320 -200.2665    7.5561 -200.9174    7.6740 -200.2961    7.5906 -200.1327    7.8114 -200.1559    7.7844 -200.0790    7.7676
  3.330 -187.5989    6.0983 -188.3032    6.2045 -187.6256    6.1268 -187.5707    6.2793 -187.5816    6.2522 -187.5152    6.2375
  3.340 -174.9243    4.8138 -175.7059    4.9153 -174.9498    4.8468 -175.0037    4.9224 -174.9911    4.9220 -174.9361    4.9019
  3.350 -161.9009    3.7537 -162.7959    3.8523 -161.9287    3.8054 -162.1042    3.7884 -162.0694    3.8477 -162.0148    3.8150
  3.360 -148.1858    3.1410 -149.2387    3.2317 -148.2247    3.2302 -148.5283    3.0764 -148.4637    3.2178 -148.4038    3.1862
  3.370 -133.3736    3.1449 -134.6539    3.2218 -133.4394    3.2962 -133.8556    2.9593 -133.7294    3.2465 -133.6810    3.2171
  3.380 -116.6761    4.1697 -118.3038    4.2048 -116.7993    4.4199 -117.3077    3.8447 -117.1018    4.4085 -117.0777    4.3643
  3.390  -96.9169    7.2245  -99.0946    7.1252  -97.1632    7.6272  -97.7179    6.7326  -97.4556    7.8162  -97.4652    7.7232
  3.400  -72.3779   14.6754  -75.4432   14.1640  -72.8965   15.2998  -73.3823   13.9805  -73.2485   16.0597  -73.2857   15.8414
  3.410  -41.1939   32.4592  -45.6050   30.6989  -42.3355   33.3355  -42.4873   31.5156  -43.3337   35.4617  -43.2913   34.9528
  3.420   -6.2658   75.3040  -11.8057   69.9996   -8.8067   76.0902   -8.1542   73.9403  -13.2639   80.2541  -12.5747   79.3290
  3.430   -0.7591  164.3688   -2.5225  152.6060   -5.5430  162.8414   -3.5900  161.2627  -18.6244  162.5310  -16.4328  162.6666
  3.440  -96.4137  241.2737  -86.6092  231.7072  -98.1306  234.2511  -96.9476  235.1301 -106.4117  219.5815 -105.9504  221.7444
  3.450 -197.2033  198.1087 -187.6696  199.2138 -193.3643  194.0733 -194.3579  193.3012 -189.6400  181.4975 -190.3194  182.4204
  3.460 -219.7308  133.4933 -215.4659  136.8125 -216.5239  132.8060 -216.4360  130.7420 -210.4184  126.0976 -210.9245  126.5183
  3.470 -212.9104   93.5195 -211.1442   96.0044 -210.9798   93.6966 -210.0380   91.7672 -205.5584   90.0359 -205.9694   90.3090
  3.480 -200.8986   70.5237 -200.0751   72.0402 -199.7083   70.7699 -198.4527   69.1412 -195.2376   68.4166 -195.6013   68.6527
  3.490 -189.4517   56.8169 -188.4575   58.9251 -188.6344   56.9452 -187.2887   55.4755 -184.7865   55.3460 -185.2207   55.3133
  3.500 -179.8917   48.4943 -179.4678   49.2725 -179.2265   48.4689 -177.8144   46.9559 -175.8361   46.9129 -176.2078   46.8921
  3.510 -173.1511   43.3812 -172.6261   43.8650 -172.4500   43.2167 -170.7260   41.4521 -168.9747   41.5692 -169.3590   41.4455
  3.520 -170.2765   37.8922 -169.5695   38.4454 -169.3266   37.7932 -166.6651   36.0563 -165.1540   36.5242 -165.4212   36.2001
  3.530 -165.7935   28.1147 -165.3000   28.9210 -164.8706   28.4558 -161.5523   27.8711 -160.6006   28.5357 -160.5866   28.2482
  3.540 -156.6098   21.1743 -156.4207   21.8897 -156.0408   21.6543 -153.1958   22.0337 -152.6312   22.5265 -152.5670   22.4031
  3.550 -148.1962   18.0195 -148.1372   18.5745 -147.8477   18.4330 -145.5784   19.1178 -145.1712   19.4530 -145.1349   19.3970
  3.560 -141.3445   16.2116 -141.3389   16.6425 -141.1105   16.5425 -139.2327   17.2880 -138.9098   17.5273 -138.8948   17.4953
  3.570 -135.5415   14.8890 -135.5607   15.2286 -135.3728   15.1522 -133.7558   15.8909 -133.4915   16.0686 -133.4885   16.0466
  3.580 -130.4312   13.8059 -130.4629   14.0768 -130.3034   14.0160 -128.8702   14.7310 -128.6515   14.8656 -128.6549   14.8485
  3.590 -125.8138   12.8778 -125.8522   13.0957 -125.7138   13.0461 -124.4175   13.7345 -124.2357   13.8372 -124.2427   13.8227
  3.600 -121.5715   12.0664 -121.6136   12.2424 -121.4913   12.2013 -120.3019   12.8643 -120.1508   12.9423 -120.1595   12.9295
  3.610 -117.6290   11.3496 -117.6731   11.4919 -117.5635   11.4573 -116.4607   12.0971 -116.3351   12.1554 -116.3446   12.1438
  3.620 -113.9343   10.7121 -113.9796   10.8270 -113.8801   10.7975 -112.8493   11.4162 -112.7453   11.4587 -112.7549   11.4481
  3.630 -110.4497   10.1426 -110.4955   10.2348 -110.4043   10.2094 -109.4347   10.8090 -109.3489   10.8387 -109.3584   10.8289
  3.640 -107.1461    9.6320 -107.1922    9.7055 -107.1079    9.6834 -106.1913   10.2653 -106.1208   10.2848 -106.1299   10.2757
  3.650 -104.0007    9.1731 -104.0470    9.2310 -103.9684    9.2116 -103.0982    9.7772 -103.0408    9.7885 -103.0493    9.7800
  3.660 -100.9949    8.7601 -101.0413    8.8050 -100.9675    8.7877 -100.1385    9.3381 -100.0921    9.3430 -100.1000    9.3352
  3.670  -98.1131    8.3881  -98.1597    8.4221  -98.0899    8.4066  -97.2978    8.9426  -97.2607    8.9428  -97.2680    8.9355
  3.680  -95.3422    8.0531  -95.3890    8.0781  -95.3227    8.0640  -94.5638    8.5865  -94.5345    8.5832  -94.5411    8.5765
  3.690  -92.6707    7.7519  -92.7178    7.7694  -92.6545    7.7564  -91.9258    8.2660  -91.9030    8.2607  -91.9090    8.2546
  3.700  -90.0887    7.4818  -90.1363    7.4933  -90.0755    7.4812  -89.3744    7.9783  -89.3569    7.9722  -89.3622    7.9666
  3.710  -87.5874    7.2408  -87.6355    7.2475  -87.5769    7.2361  -86.9012    7.7210  -86.8879    7.7154  -86.8926    7.7103
  3.720  -85.1588    7.0272  -85.2075    7.0302  -85.1508    7.0193  -84.4986    7.4925  -84.4886    7.4884  -84.4927    7.4838
  3.730  -82.7956    6.8398  -82.8451    6.8402  -82.7901    6.8296  -82.1596    7.2913  -82.1520    7.2898  -82.1555    7.2858
  3.740  -80.4913    6.6779  -80.5418    6.6765  -80.4882    6.6661  -79.8779    7.1165  -79.8720    7.1187  -79.8749    7.1152
  3.750  -78.2397    6.5411  -78.2913    6.5388  -78.2390    6.5285  -77.6475    6.9677  -77.6426    6.9747  -77.6450    6.9717
  3.760  -76.0351    6.4294  -76.0881    6.4271  -76.0368    6.4167  -75.4630    6.8447  -75.4583    6.8577  -75.4603    6.8552
  3.770  -73.8720    6.3432  -73.9266    6.3417  -73.8763    6.3311  -73.3191    6.7479  -73.3141    6.7681  -73.3156    6.7661
  3.780  -71.7454    6.2835  -71.8018    6.2835  -71.7524    6.2727  -71.2108    6.6782  -71.2049    6.7068  -71.2059    6.7052
  3.790  -69.6504    6.2515  -69.7089    6.2539  -69.6602    6.2426  -69.1334    6.6369  -69.1260    6.6751  -69.1266    6.6739
  3.800  -67.5823    6.2492  -67.6431    6.2548  -67.5951    6.2429  -67.0823    6.6257  -67.0729    6.6749  -67.0732    6.6742
  3.810  -65.5366    6.2791  -65.6001    6.2887  -65.5527    6.2761  -65.0531    6.6472  -65.0414    6.7089  -65.0413    6.7086
  3.820  -63.5090    6.3446  -63.5756    6.3590  -63.5287    6.3455  -63.0419    6.7047  -63.0273    6.7805  -63.0269    6.7805
  3.830  -61.4956    6.4497  -61.5657    6.4698  -61.5193    6.4553  -61.0446    6.8023  -61.0269    6.8938  -61.0262    6.8942
  3.840  -59.4928    6.5997  -59.5669    6.6264  -59.5209    6.6107  -59.0579    6.9450  -59.0368    7.0542  -59.0358    7.0550
  3.850  -57.4974    6.8009  -57.5762    6.8352  -57.5306    6.8181  -57.0787    7.1393  -57.0541    7.2683  -57.0529    7.2693
  3.860  -55.5071    7.0612  -55.5912    7.1041  -55.5460    7.0854  -55.1050    7.3929  -55.0767    7.5439  -55.0753    7.5453
  3.870  -53.5207    7.3902  -53.6109    7.4427  -53.5660    7.4221  -53.1355    7.7153  -53.1038    7.8909  -53.1022    7.8925
  3.880  -51.5385    7.7992  -51.6358    7.8625  -51.5913    7.8397  -51.1711    8.1179  -51.1362    8.3209  -51.1344    8.3225
  3.890  -49.5633    8.3020  -49.6688    8.3772  -49.6246    8.3519  -49.2145    8.6141  -49.1773    8.8476  -49.1753    8.8493
  3.900  -47.6013    8.9143  -47.7164    9.0027  -47.6724    8.9744  -47.2724    9.2196  -47.2338    9.4869  -47.2317    9.4885
  3.910  -45.6635    9.6540  -45.7898    9.7568  -45.7462    9.7250  -45.3561    9.9520  -45.3177   10.2567  -45.3155   10.2581
  3.920  -43.7679   10.5402  -43.9073   10.6587  -43.8639   10.6228  -43.4838   10.8300  -43.4480   11.1759  -43.4455   11.1770
  3.930  -41.9413   11.5919  -42.0960   11.7272  -42.0529   11.6863  -41.6826   11.8719  -41.6526   12.2629  -41.6498   12.2635
  3.940  -40.2220   12.8243  -40.3945   12.9776  -40.3517   12.9307  -39.9912   13.0925  -39.9711   13.5321  -39.9679   13.5320
  3.950  -38.6615   14.2445  -38.8549   14.4168  -38.8119   14.3625  -38.4609   14.4978  -38.4561   14.9889  -38.4522   14.9880
  3.960  -37.3244   15.8434  -37.5419   16.0352  -37.4983   15.9718  -37.1562   16.0775  -37.1730   16.6219  -37.1681   16.6200
  3.970  -36.2838   17.5860  -36.5293   17.7977  -36.4839   17.7231  -36.1496   17.7957  -36.1950   18.3935  -36.1887   18.3905
  3.980  -35.6110   19.4026  -35.8886   19.6342  -35.8395   19.5459  -35.5111   19.5816  -35.5919   20.2305  -35.5837   20.2266
  3.990  -35.3563   21.1844  -35.6706   21.4352  -35.6145   21.3309  -35.2895   21.3260  -35.4112   22.0214  -35.4007   22.0168
  4.000  -35.5259   22.7913  -35.8817   23.0599  -35.8138   22.9380  -35.4890   22.8891  -35.6545   23.6246  -35.6412   23.6197
  4.010  -36.0624   24.0758  -36.4645   24.3596  -36.3790   24.2202  -36.0509   24.1244  -36.2593   24.8934  -36.2431   24.8888
  4.020  -36.8430   24.9188  -37.2958   25.2144  -37.1865   25.0599  -36.8516   24.9148  -37.0985   25.7121  -37.0793   25.7084
  4.030  -37.7006   25.2631  -38.2076   25.5664  -38.0693   25.4015  -37.7246   25.2046  -38.0028   26.0285  -37.9808   26.0262
  4.040  -38.4631   25.1273  -39.0267   25.4340  -38.8561   25.2648  -38.4989   25.0135  -38.8004   25.8663  -38.7760   25.8658
  4.050  -38.9909   24.5934  -39.6127   24.8996  -39.4089   24.7329  -39.0365   24.4236  -39.3540   25.3118  -39.3274   25.3133
  4.060  -39.1980   23.7779  -39.8791   24.0806  -39.6434   23.9223  -39.2526   23.5506  -39.5809   24.4837  -39.5525   24.4874
  4.070  -39.0520   22.8010  -39.7939   23.0981  -39.5289   22.9528  -39.1157   22.5134  -39.4520   23.5035  -39.4221   23.5092
  4.080  -38.5608   21.7659  -39.3663   22.0561  -39.0750   21.9269  -38.6342   21.4138  -38.9784   22.4743  -38.9471   22.4821
  4.090  -37.7556   20.7505  -38.6288   21.0324  -38.3142   20.9209  -37.8391   20.3278  -38.1939   21.4733  -38.1613   21.4831
  4.100  -36.6766   19.8080  -37.6234   20.0788  -37.2880   19.9859  -36.7700   19.3065  -37.1408   20.5524  -37.1069   20.5643
  4.110  -35.3634   18.9712  -36.3914   19.2263  -36.0369   19.1522  -35.4655   18.3806  -35.8606   19.7428  -35.8256   19.7568
  4.120  -33.8508   18.2589  -34.9685   18.4901  -34.5962   18.4346  -33.9582   17.5664  -34.3895   19.0610  -34.3534   19.0772
  4.130  -32.1667   17.6809  -33.3823   17.8747  -32.9927   17.8376  -32.2727   16.8710  -32.7564   18.5137  -32.7195   18.5322
  4.140  -30.3331   17.2414  -31.6516   17.3774  -31.2449   17.3584  -30.4256   16.2964  -30.9828   18.1007  -30.9455   18.1216
  4.150  -28.3672   16.9412  -29.7853   16.9905  -29.3611   16.9892  -28.4252   15.8423  -29.0832   17.8168  -29.0461   17.8400
  4.160  -26.2841   16.7758  -27.7805   16.7025  -27.3380   16.7182  -26.2727   15.5079  -27.0647   17.6508  -27.0288   17.6759
  4.170  -24.0970   16.7295  -25.6181   16.5013  -25.1556   16.5329  -23.9625   15.2939  -24.9237   17.5834  -24.8902   17.6090
  4.180  -21.8075   16.7619  -23.2570   16.3810  -22.7715   16.4265  -21.4821   15.2029  -22.6355   17.5824  -22.6054   17.6053
  4.190  -19.3653   16.7998  -20.6310   16.3575  -20.1166   16.4147  -18.8117   15.2406  -20.1249   17.6087  -20.0969   17.6234
  4.200  -16.6043   16.8019  -17.6609   16.4912  -17.1073   16.5591  -15.9237   15.4173  -17.2319   17.6744  -17.1985   17.6750
  4.210  -13.3114   16.9115  -14.2880   16.8944  -13.6818   16.9769  -12.7808   15.7503  -13.7788   17.9533  -13.7266   17.9421
  4.220   -9.4610   17.3959  -10.5024   17.7054   -9.8283   17.8078   -9.3359   16.2652   -9.7577   18.7286   -9.6794   18.7185
  4.230   -5.1636   18.3862   -6.3437   19.0538   -5.5775   19.1934   -5.5287   16.9987   -5.3040   20.1738   -5.2034   20.1765
  4.240   -0.4451   19.9025   -1.8643   21.0221   -0.9948   21.2265   -1.2806   18.0024   -0.5031   22.3462   -0.3870   22.3663
  4.250    4.7782   21.9996    2.9383   23.6832    3.9237   23.9776    3.5117   19.3514    4.6595   25.3185    4.7869   25.3565
  4.260   10.6476   24.8255    8.1101   27.1738    9.2289   27.5928    8.9855   21.1574   10.2521   29.2590   10.3895   29.3152
  4.270   17.3370   28.6481   13.7007   31.7310   14.9726   32.3251   15.3245   23.5891   16.3467   34.4739   16.4943   34.5498
  4.280   25.0421   33.9067   19.7188   37.7242   21.1631   38.5684   22.7771   26.9106   22.9662   41.4550   23.1246   41.5543
  4.290   33.9521   41.3169   26.0653   45.6903   27.6930   46.8988   31.6817   31.5473   29.9945   50.9553   30.1640   51.0837
  4.300   44.1488   52.0599   32.4125   56.3660   34.2058   58.1137   42.5020   38.2185   36.9836   64.0923   37.1631   64.2588
  4.310   55.2923   68.0917   37.9956   70.6625   39.8584   73.2123   55.8426   48.2120   42.7268   82.4269   42.9122   82.6447
  4.320   65.7268   92.4859   41.3343   89.4660   42.9815   93.1798   72.3641   63.9614   44.3685  107.7579   44.5483  108.0456
  4.330   70.3303  129.0112   40.1159  113.1646   40.8606  118.4204   92.1931   90.3341   35.9149  140.6900   36.0605  141.0731
  4.340   57.6850  177.9777   31.5789  141.4567   30.0487  148.2513  112.0109  137.2319    7.8905  175.7047    7.9279  176.2001
  4.350   14.4489  227.2004   11.2561  174.8017    5.4800  181.6361  112.6838  220.8706  -43.3130  194.3277  -43.5007  194.8521
  4.360  -62.2571  253.1696  -36.1515  207.9583  -46.3277  210.3560   31.8525  330.1014  -97.2900  179.3698  -97.6698  179.7150
  4.370 -150.1240  220.5831 -111.3420  198.6517 -119.6805  194.0486 -142.0059  331.7645 -129.0146  143.4508 -129.3650  143.5756
  4.380 -185.1348  147.7835 -150.9190  144.4469 -153.8922  138.4161 -227.4446  213.8975 -138.6762  108.0275 -138.9156  108.0823
  4.390 -178.0525   93.7726 -152.6512   99.0110 -152.8738   94.6154 -221.1736  122.4683 -136.7378   80.8384 -136.9197   80.8949
  4.400 -161.4425   62.4159 -143.3494   70.5524 -142.7081   67.6878 -194.9431   73.5861 -130.3298   61.4554 -130.4898   61.5166
  4.410 -145.6183   44.0358 -132.7057   52.6369 -131.8967   50.7722 -170.6440   47.6234 -122.7528   47.7808 -122.9025   47.8407
  4.420 -132.3342   32.6431 -122.9679   40.7827 -122.2072   39.5362 -151.2443   32.9106 -115.3254   38.0161 -115.4678   38.0717
  4.430 -121.4312   25.1833 -114.4956   32.5653 -113.8386   31.7081 -136.0498   23.9860 -108.5058   30.9058 -108.6418   30.9563
  4.440 -112.4475   20.0663 -107.2026   26.6527 -106.6526   26.0455 -124.0190   18.2467 -102.4018   25.6172 -102.5317   25.6628
  4.450 -104.9604   16.4189 -100.9145   22.2657 -100.4587   21.8241 -114.3199   14.3734  -96.9858   21.6017  -97.1101   21.6430
  4.460  -98.6378   13.7347  -95.4597   18.9266  -95.0827   18.5977 -106.3532   11.6535  -92.1854   18.4936  -92.3044   18.5313
  4.470  -93.2292   11.7056  -90.6916   16.3295  -90.3791   16.0793  -99.6949    9.6796  -87.9192   16.0455  -88.0333   16.0802
  4.480  -88.5467   10.1364  -86.4905   14.2717  -86.2305   14.0776  -94.0429    8.2068  -84.1105   14.0866  -84.2202   14.1188
  4.490  -84.4482    8.8990  -82.7600   12.6145  -82.5426   12.4613  -89.1785    7.0819  -80.6923   12.4967  -80.7981   12.5269
  4.500  -80.8253    7.9065  -79.4228   11.2608  -79.2402   11.1379  -84.9406    6.2050  -77.6076   11.1897  -77.7098   11.2183
  4.510  -77.5943    7.0986  -76.4167   10.1412  -76.2626   10.0409  -81.2086    5.5095  -74.8085   10.1027  -74.9074   10.1301
  4.520  -74.6896    6.4323  -73.6913    9.2045  -73.5607    9.1216  -77.8905    4.9493  -72.2549    9.1894  -72.3509    9.2157
  4.530  -72.0594    5.8765  -71.2059    8.4132  -71.0946    8.3436  -74.9152    4.4919  -69.9134    8.4147  -70.0068    8.4403
  4.540  -69.6622    5.4080  -68.9266    7.7385  -68.8314    7.6793  -72.2269    4.1141  -67.7561    7.7520  -67.8472    7.7770
  4.550  -67.4643    5.0094  -66.8259    7.1585  -66.7440    7.1075  -69.7813    3.7985  -65.7595    7.1806  -65.8485    7.2053
  4.560  -65.4383    4.6676  -64.8807    6.6564  -64.8099    6.6118  -67.5426    3.5325  -63.9039    6.6847  -63.9911    6.7090
  4.570  -63.5616    4.3722  -63.0717    6.2187  -63.0101    6.1793  -65.4819    3.3064  -62.1726    6.2513  -62.2581    6.2755
  4.580  -61.8152    4.1153  -61.3825    5.8349  -61.3287    5.7995  -63.5753    3.1127  -60.5512    5.8705  -60.6353    5.8946
  4.590  -60.1835    3.8904  -59.7995    5.4964  -59.7521    5.4643  -61.8031    2.9456  -59.0277    5.5340  -59.1104    5.5582
  4.600  -58.6531    3.6926  -58.3108    5.1964  -58.2688    5.1670  -60.1488    2.8006  -57.5914    5.2353  -57.6730    5.2596
  4.610  -57.2126    3.5176  -56.9062    4.9294  -56.8688    4.9020  -58.5985    2.6741  -56.2334    4.9689  -56.3140    4.9934
  4.620  -55.8524    3.3623  -55.5772    4.6906  -55.5434    4.6650  -57.1405    2.5633  -54.9457    4.7304  -55.0255    4.7552
  4.630  -54.5641    3.2239  -54.3161    4.4764  -54.2854    4.4521  -55.7646    2.4657  -53.7216    4.5161  -53.8007    4.5413
  4.640  -53.3405    3.1001  -53.1163    4.2835  -53.0880    4.2603  -54.4622    2.3795  -52.5550    4.3229  -52.6335    4.3485
  4.650  -52.1752    2.9890  -51.9720    4.1094  -51.9458    4.0870  -53.2259    2.3031  -51.4406    4.1482  -51.5186    4.1742
  4.660  -51.0628    2.8892  -50.8782    3.9517  -50.8535    3.9299  -52.0491    2.2353  -50.3737    3.9898  -50.4514    4.0164
  4.670  -49.9984    2.7992  -49.8304    3.8085  -49.8069    3.7872  -50.9262    2.1750  -49.3503    3.8459  -49.4277    3.8730
  4.680  -48.9777    2.7180  -48.8246    3.6783  -48.8018    3.6574  -49.8521    2.1213  -48.3665    3.7149  -48.4438    3.7426
  4.690  -47.9969    2.6446  -47.8572    3.5597  -47.8349    3.5390  -48.8226    2.0734  -47.4192    3.5954  -47.4964    3.6237
  4.700  -47.0528    2.5782  -46.9250    3.4515  -46.9030    3.4308  -47.8336    2.0308  -46.5053    3.4862  -46.5826    3.5152
  4.710  -46.1421    2.5182  -46.0253    3.3527  -46.0032    3.3320  -46.8818    1.9929  -45.6222    3.3864  -45.6996    3.4162
  4.720  -45.2622    2.4639  -45.1553    3.2623  -45.1331    3.2416  -45.9639    1.9593  -44.7676    3.2950  -44.8451    3.3256
  4.730  -44.4108    2.4149  -44.3129    3.1797  -44.2902    3.1589  -45.0773    1.9296  -43.9391    3.2114  -44.0170    3.2428
  4.740  -43.5854    2.3707  -43.4959    3.1042  -43.4726    3.0831  -44.2194    1.9034  -43.1348    3.1348  -43.2131    3.1671
  4.750  -42.7842    2.3310  -42.7024    3.0351  -42.6783    3.0138  -43.3879    1.8805  -42.3529    3.0647  -42.4317    3.0980
  4.760  -42.0053    2.2954  -41.9306    2.9721  -41.9055    2.9505  -42.5808    1.8607  -41.5918    3.0006  -41.6712    3.0348
  4.770  -41.2470    2.2636  -41.1789    2.9146  -41.1527    2.8926  -41.7963    1.8437  -40.8499    2.9421  -40.9300    2.9773
  4.780  -40.5078    2.2355  -40.4459    2.8622  -40.4184    2.8399  -41.0325    1.8294  -40.1258    2.8887  -40.2066    2.9250
  4.790  -39.7863    2.2108  -39.7302    2.8147  -39.7011    2.7920  -40.2880    1.8177  -39.4182    2.8401  -39.4999    2.8776
  4.800  -39.0811    2.1893  -39.0304    2.7718  -38.9998    2.7486  -39.5612    1.8085  -38.7259    2.7962  -38.8085    2.8348
  4.810  -38.3910    2.1709  -38.3455    2.7332  -38.3132    2.7094  -38.8508    1.8016  -38.0477    2.7565  -38.1315    2.7964
  4.820  -37.7149    2.1554  -37.6744    2.6986  -37.6401    2.6743  -38.1557    1.7970  -37.3827    2.7209  -37.4676    2.7621
  4.830  -37.0518    2.1429  -37.0159    2.6679  -36.9796    2.6431  -37.4745    1.7946  -36.7298    2.6892  -36.8160    2.7318
  4.840  -36.4006    2.1331  -36.3692    2.6410  -36.3307    2.6156  -36.8063    1.7944  -36.0881    2.6612  -36.1757    2.7053
  4.850  -35.7604    2.1261  -35.7334    2.6177  -35.6925    2.5916  -36.1500    1.7964  -35.4567    2.6368  -35.5458    2.6824
  4.860  -35.1304    2.1218  -35.1075    2.5979  -35.0642    2.5712  -35.5047    1.8005  -34.8348    2.6159  -34.9255    2.6631
  4.870  -34.5096    2.1202  -34.4908    2.5816  -34.4448    2.5541  -34.8694    1.8068  -34.2215    2.5985  -34.3139    2.6473
  4.880  -33.8973    2.1212  -33.8825    2.5686  -33.8336    2.5404  -34.2433    1.8153  -33.6162    2.5843  -33.7105    2.6350
  4.890  -33.2927    2.1249  -33.2818    2.5589  -33.2299    2.5299  -33.6255    1.8259  -33.0180    2.5735  -33.1143    2.6260
  4.900  -32.6950    2.1313  -32.6880    2.5525  -32.6329    2.5227  -33.0153    1.8388  -32.4264    2.5660  -32.5248    2.6204
  4.910  -32.1037    2.1405  -32.1004    2.5494  -32.0420    2.5188  -32.4119    1.8541  -31.8404    2.5617  -31.9412    2.6181
  4.920  -31.5178    2.1524  -31.5183    2.5496  -31.4564    2.5181  -31.8146    1.8717  -31.2596    2.5607  -31.3629    2.6193
  4.930  -30.9369    2.1672  -30.9411    2.5532  -30.8754    2.5208  -31.2226    1.8917  -30.6833    2.5629  -30.7892    2.6238
  4.940  -30.3602    2.1850  -30.3681    2.5602  -30.2985    2.5268  -30.6352    1.9143  -30.1107    2.5686  -30.2194    2.6319
  4.950  -29.7870    2.2059  -29.7988    2.5707  -29.7249    2.5362  -30.0518    1.9396  -29.5413    2.5777  -29.6531    2.6435
  4.960  -29.2168    2.2300  -29.2323    2.5848  -29.1540    2.5493  -29.4717    1.9677  -28.9744    2.5903  -29.0895    2.6588
  4.970  -28.6489    2.2575  -28.6682    2.6026  -28.5852    2.5659  -28.8942    1.9988  -28.4094    2.6065  -28.5280    2.6778
  4.980  -28.0826    2.2885  -28.1058    2.6243  -28.0178    2.5864  -28.3185    2.0331  -27.8457    2.6265  -27.9680    2.7008
  4.990  -27.5173    2.3233  -27.5445    2.6500  -27.4512    2.6109  -27.7441    2.0706  -27.2825    2.6504  -27.4089    2.7280
  5.000  -26.9523    2.3621  -26.9836    2.6800  -26.8847    2.6396  -27.1703    2.1118  -26.7194    2.6785  -26.8500    2.7594
  5.010  -26.3871    2.4051  -26.4225    2.7145  -26.3176    2.6728  -26.5963    2.1567  -26.1555    2.7109  -26.2907    2.7955
  5.020  -25.8209    2.4528  -25.8605    2.7538  -25.7493    2.7107  -26.0215    2.2058  -25.5902    2.7480  -25.7304    2.8364
  5.030  -25.2530    2.5054  -25.2970    2.7983  -25.1791    2.7536  -25.4451    2.2593  -25.0228    2.7900  -25.1684    2.8825
  5.040  -24.6828    2.5633  -24.7313    2.8482  -24.6062    2.8019  -24.8664    2.3177  -24.4527    2.8372  -24.6040    2.9341
  5.050  -24.1096    2.6270  -24.1628    2.9041  -24.0300    2.8561  -24.2847    2.3813  -23.8790    2.8901  -24.0365    2.9917
  5.060  -23.5326    2.6971  -23.5906    2.9665  -23.4497    2.9167  -23.6992    2.4506  -23.3009    2.9492  -23.4652    3.0559
  5.070  -22.9510    2.7742  -23.0140    3.0359  -22.8644    2.9842  -23.1090    2.5261  -22.7178    3.0149  -22.8894    3.1270
  5.080  -22.3642    2.8588  -22.4324    3.1130  -22.2734    3.0592  -22.5133    2.6086  -22.1287    3.0878  -22.3082    3.2059
  5.090  -21.7714    2.9520  -21.8449    3.1986  -21.6759    3.1426  -21.9112    2.6986  -21.5328    3.1688  -21.7209    3.2932
  5.100  -21.1717    3.0545  -21.2508    3.2936  -21.0710    3.2351  -21.3020    2.7971  -20.9292    3.2584  -21.1267    3.3898
  5.110  -20.5643    3.1674  -20.6493    3.3991  -20.4579    3.3379  -20.6845    2.9050  -20.3169    3.3578  -20.5246    3.4967
  5.120  -19.9486    3.2921  -20.0395    3.5161  -19.8357    3.4521  -20.0579    3.0233  -19.6951    3.4679  -19.9140    3.6152
  5.130  -19.3236    3.4299  -19.4209    3.6463  -19.2036    3.5791  -19.4213    3.1534  -19.0627    3.5901  -19.2939    3.7465
  5.140  -18.6888    3.5825  -18.7926    3.7912  -18.5606    3.7205  -18.7736    3.2967  -18.4187    3.7258  -18.6635    3.8922
  5.150  -18.0436    3.7519  -18.1540    3.9527  -17.9062    3.8781  -18.1139    3.4549  -17.7623    3.8767  -18.0221    4.0543
  5.160  -17.3876    3.9404  -17.5049    4.1332  -17.2398    4.0542  -17.4414    3.6301  -17.0924    4.0448  -17.3690    4.2348
  5.170  -16.7205    4.1505  -16.8449    4.3353  -16.5608    4.2512  -16.7553    3.8245  -16.4083    4.2324  -16.7038    4.4365
  5.180  -16.0428    4.3854  -16.1744    4.5621  -15.8694    4.4720  -16.0551    4.0410  -15.7094    4.4422  -16.0261    4.6622
  5.190  -15.3553    4.6485  -15.4941    4.8170  -15.1661    4.7199  -15.3406    4.2824  -14.9954    4.6773  -15.3364    4.9154
  5.200  -14.6597    4.9435  -14.8058    5.1039  -14.4521    4.9986  -14.6122    4.5524  -14.2666    4.9411  -14.6354    5.2002
  5.210  -13.9590    5.2744  -14.1124    5.4272  -13.7297    5.3117  -13.8708    4.8546  -13.5238    5.2375  -13.9251    5.5210
  5.220  -13.2578    5.6450  -13.4185    5.7908  -13.0027    5.6630  -13.1184    5.1932  -12.7689    5.5705  -13.2088    5.8824
  5.230  -12.5629    6.0586  -12.7309    6.1985  -12.2767    6.0554  -12.3585    5.5717  -12.0049    5.9439  -12.4914    6.2894
  5.240  -11.8833    6.5163  -12.0592    6.6523  -11.5593    6.4901  -11.5957    5.9933  -11.2363    6.3608  -11.7805    6.7460
  5.250  -11.2307    7.0164  -11.4156    7.1510  -10.8600    6.9650  -10.8364    6.4593  -10.4689    6.8227  -11.0863    7.2546
  5.260  -10.6184    7.5513  -10.8148    7.6880  -10.1890    7.4728  -10.0874    6.9681   -9.7091    7.3283  -10.4218    7.8146
  5.270  -10.0593    8.1057  -10.2714    8.2489   -9.5541    7.9991   -9.3551    7.5146   -8.9623    7.8731   -9.8026    8.4201
  5.280   -9.5616    8.6552   -9.7963    8.8092   -8.9559    8.5222   -8.6423    8.0901   -8.2301    8.4491   -9.2449    9.0585
  5.290   -9.1229    9.1660   -9.3911    9.3352   -8.3812    9.0168   -7.9458    8.6852   -7.5073    9.0488   -8.7647    9.7082
  5.300   -8.7240    9.5995   -9.0422    9.7859   -7.7986    9.4635   -7.2578    9.2948   -6.7832    9.6716   -8.3761   10.3353
  5.310   -8.3235    9.9185   -8.7143   10.1182   -7.1622    9.8646   -6.5716    9.9202   -6.0508   10.3294   -8.0856   10.8834
  5.320   -7.8503   10.0984   -8.3413   10.2958   -6.4323   10.2558   -5.8902   10.5623   -5.3239   11.0382   -7.8656   11.2621
  5.330   -7.2004   10.1572   -7.8173   10.3182   -5.6090   10.6936   -5.2192   11.2050   -4.6377   11.7856   -7.5967   11.3744
  5.340   -6.2842   10.2014   -7.0343   10.2701   -4.7404   11.1998   -4.5414   11.8150   -4.0032   12.5099   -7.0593   11.2334
  5.350   -5.1262   10.3737   -5.9760   10.2942   -3.8518   11.7252   -3.8030   12.3721   -3.3585   13.1472   -6.0905   11.0394
  5.360   -3.8217   10.7197   -4.7138   10.4747   -2.8843   12.2220   -2.9357   12.8962   -2.5984   13.6998   -4.7235   11.0308
  5.370   -2.4065   11.2132   -3.3010   10.8212   -1.7478   12.7173   -1.8865   13.4436   -1.6406   14.2364   -3.0957   11.3249
  5.380   -0.8615   11.8526   -1.7484   11.3384   -0.3903   13.2934   -0.6300   14.0890   -0.4502   14.8525   -1.3194   11.9379
  5.390    0.8326   12.6737   -0.0557   12.0505    1.1936   14.0398    0.8313   14.9098    0.9679   15.6406    0.5450   12.8567
  5.400    2.6774   13.7270    1.7714   12.9915    2.9827   15.0318    2.4755   15.9753    2.5852   16.6787    2.4717   14.0743
  5.410    4.6622   15.0640    3.7232   14.1983    4.9484   16.3308    4.2712   17.3456    4.3638   18.0303    4.4504   15.6005
  5.420    6.7717   16.7385    5.7896   15.7115    7.0636   17.9945    6.1853   19.0767    6.2649   19.7528    6.4749   17.4640
  5.430    8.9878   18.8122    7.9604   17.5815    9.3022   20.0882    8.1819   21.2294    8.2479   21.9068    8.5339   19.7124
  5.440   11.2854   21.3626   10.2214   19.8741   11.6324   22.6939   10.2175   23.8764   10.2650   24.5640   10.6042   22.4126
  5.450   13.6234   24.4883   12.5467   22.6751   14.0058   25.9167   12.2306   27.1065   12.2501   27.8113   12.6414   25.6503
  5.460   15.9314   28.3130   14.8890   26.0951   16.3419   29.8892   14.1280   31.0258   14.1054   31.7510   14.5692   29.5298
  5.470   18.0896   32.9861   17.1636   30.2715   18.5048   34.7710   15.7659   35.7528   15.6827   36.4952   16.2633   34.1696
  5.480   19.9007   38.6757   19.2253   35.3681   20.2709   40.7395   16.9269   41.4058   16.7621   42.1517   17.5309   39.6924
  5.490   21.0503   45.5458   20.8344   41.5635   21.2858   47.9613   17.2921   48.0731   17.0276   48.7928   18.0833   46.2013
  5.500   21.0612   53.7013   21.6107   49.0187   21.0161   56.5256   16.4171   55.7573   16.0509   56.4028   17.5082   53.7336
  5.510   19.2604   63.0788   20.9827   57.8006   18.7218   66.3153   13.7307   64.2813   13.2960   64.7946   15.2543   62.1751
  5.520   14.8117   73.2629   18.1651   67.7325   13.5151   76.8034    8.5966   73.1554    8.1783   73.4995   10.6660   71.1250
  5.530    6.9179   83.2653   12.2508   78.1633    4.6161   86.8292    0.5024   81.4461    0.2207   81.6595    3.1428   79.7345
  5.540   -4.7184   91.4436    2.5465   87.7494   -8.1211   94.5724  -10.5875   87.7814  -10.6579   88.0123   -7.5042   86.6465
  5.550  -19.3162   95.8777  -10.8171   94.5436  -23.6264   98.0556  -23.8478   90.6958  -23.7845   91.1350  -20.5951   90.2895
  5.560  -34.8727   95.2898  -26.3811   96.7128  -39.6025   96.1733  -37.5698   89.3239  -37.5990   90.0422  -34.4534   89.6136
  5.570  -48.9218   89.8666  -41.6660   93.6154  -53.4828   89.4517  -49.7829   83.9606  -50.1126   84.8232  -47.0110   84.7701
  5.580  -59.7084   81.1360  -54.3510   86.2407  -63.6578   79.7123  -59.1286   75.9100  -59.7965   76.6844  -56.7714   77.0298
  5.590  -66.7474   71.0320  -63.2956   76.5234  -69.8942   68.9947  -65.2556   66.7612  -66.1448   67.2787  -63.2878   68.0248
  5.600  -70.5219   61.0641  -68.6005   66.2943  -72.8760   58.7561  -68.5764   57.7552  -69.5263   57.9682  -66.9324   59.0565
  5.610  -71.8881   52.0641  -71.0338   56.7302  -73.5596   49.7190  -69.8053   49.5880  -70.6910   49.5345  -68.4129   50.8696
  5.620  -71.6655   44.3296  -71.4839   48.3620  -72.7893   42.0820  -69.6324   42.5185  -70.3831   42.2693  -68.4271   43.7571
  5.630  -70.4818   37.8535  -70.6898   41.3027  -71.1802   35.7705  -68.5946   36.5501  -69.1822   36.1760  -67.5250   37.7438
  5.640  -68.7661   32.4953  -69.1811   35.4588  -69.1378   30.6055  -67.0653   31.5695  -67.4870   31.1293  -66.0950   32.7300
  5.650  -66.7924   28.0780  -67.3086   30.6602  -66.9140   26.3902  -65.2876   27.4280  -65.5536   26.9675  -64.3952   28.5736
  5.660  -64.7285   24.4313  -65.2940   26.7255  -64.6598   22.9463  -63.4129   23.9790  -63.5400   23.5339  -62.5915   25.1296
  5.670  -62.6729   21.4082  -63.2722   23.4867  -62.4637   20.1233  -61.5311   21.0941  -61.5407   20.6921  -60.7875   22.2651
  5.680  -60.6809   18.8875  -61.3192   20.7978  -60.3760   17.7967  -59.6930   18.6668  -59.6105   18.3283  -59.0433   19.8632
  5.690  -58.7814   16.7722  -59.4705   18.5368  -58.4220   15.8637  -57.9252   16.6119  -57.7790   16.3483  -57.3877   17.8247
  5.700  -56.9873   14.9847  -57.7335   16.6079  -56.6093   14.2397  -56.2405   14.8623  -56.0587   14.6752  -55.8267   16.0704
  5.710  -55.3019   13.4638  -56.1004   14.9414  -54.9327   12.8574  -54.6441   13.3654  -54.4505   13.2475  -54.3536   14.5424
  5.720  -53.7232   12.1611  -54.5593   13.4900  -53.3796   11.6662  -53.1376   12.0791  -52.9486   12.0176  -52.9578   13.2013
  5.730  -52.2464   11.0382  -53.1008   12.2215  -51.9360   10.6296  -51.7200   10.9687  -51.5445   10.9496  -51.6312   12.0204
  5.740  -50.8651   10.0643  -51.7194   11.1114  -50.5889    9.7214  -50.3882   10.0054  -50.2297   10.0163  -50.3692   10.9795
  5.750  -49.5725    9.2150  -50.4121   10.1390  -49.3281    8.9218  -49.1381    9.1653  -48.9963    9.1966  -49.1696   10.0616
  5.760  -48.3617    8.4703  -49.1762    9.2859  -48.1451    8.2154  -47.9644    8.4287  -47.8376    8.4735  -48.0307    9.2513
  5.770  -47.2261    7.8140  -48.0092    8.5356  -47.0332    7.5892  -46.8617    7.7795  -46.7475    7.8331  -46.9509    8.5345
  5.780  -46.1595    7.2329  -46.9079    7.8737  -45.9865    7.0324  -45.8246    7.2046  -45.7206    7.2638  -45.9279    7.8987
  5.790  -45.1562    6.7161  -45.8684    7.2876  -44.9998    6.5356  -44.8477    6.6930  -44.7519    6.7559  -44.9589    7.3329
  5.800  -44.2108    6.2545  -44.8871    6.7668  -44.0685    6.0911  -43.9262    6.2358  -43.8370    6.3010  -44.0409    6.8277
  5.810  -43.3185    5.8407  -43.9598    6.3020  -43.1881    5.6919  -43.0556    5.8255  -42.9716    5.8923  -43.1708    6.3750
  5.820  -42.4750    5.4682  -43.0828    5.8857  -42.3547    5.3323  -42.2317    5.4560  -42.1519    5.5239  -42.3454    5.9679
  5.830  -41.6763    5.1319  -42.2523    5.5114  -41.5647    5.0073  -41.4508    5.1220  -41.3743    5.1906  -41.5615    5.6006
  5.840  -40.9187    4.8271  -41.4648    5.1737  -40.8147    4.7127  -40.7095    4.8192  -40.6357    4.8882  -40.8164    5.2680
  5.850  -40.1990    4.5500  -40.7171    4.8680  -40.1016    4.4448  -40.0047    4.5436  -39.9330    4.6130  -40.1072    4.9660
  5.860  -39.5143    4.2975  -40.0062    4.5904  -39.4228    4.2006  -39.3335    4.2922  -39.2637    4.3619  -39.4314    4.6908
  5.870  -38.8619    4.0666  -39.3294    4.3374  -38.7757    3.9774  -38.6935    4.0622  -38.6252    4.1321  -38.7867    4.4395
  5.880  -38.2394    3.8550  -38.6841    4.1063  -38.1579    3.7727  -38.0824    3.8512  -38.0153    3.9213  -38.1707    4.2092
  5.890  -37.6446    3.6605  -38.0681    3.8945  -37.5674    3.5847  -37.4980    3.6572  -37.4321    3.7274  -37.5816    3.9977
  5.900  -37.0755    3.4814  -37.4792    3.7000  -37.0022    3.4115  -36.9385    3.4784  -36.8736    3.5487  -37.0175    3.8030
  5.910  -36.5304    3.3160  -36.9155    3.5209  -36.4606    3.2515  -36.4022    3.3133  -36.3381    3.3836  -36.4767    3.6233
  5.920  -36.0075    3.1630  -36.3754    3.3556  -35.9410    3.1036  -35.8874    3.1604  -35.8241    3.2307  -35.9576    3.4572
  5.930  -35.5054    3.0212  -35.8572    3.2027  -35.4419    2.9665  -35.3928    3.0185  -35.3302    3.0889  -35.4589    3.3031
  5.940  -35.0227    2.8894  -35.3594    3.0609  -34.9620    2.8391  -34.9171    2.8867  -34.8551    2.9571  -34.9792    3.1601
  5.950  -34.5582    2.7668  -34.8808    2.9293  -34.5000    2.7205  -34.4590    2.7640  -34.3976    2.8343  -34.5174    3.0270
  5.960  -34.1106    2.6525  -34.4201    2.8067  -34.0549    2.6100  -34.0174    2.6496  -33.9567    2.7199  -34.0722    2.9030
  5.970  -33.6791    2.5458  -33.9761    2.6925  -33.6256    2.5067  -33.5914    2.5426  -33.5312    2.6129  -33.6428    2.7872
  5.980  -33.2625    2.4460  -33.5479    2.5858  -33.2111    2.4101  -33.1800    2.4426  -33.1203    2.5127  -33.2281    2.6788
  5.990  -32.8600    2.3524  -33.1345    2.4860  -32.8106    2.3196  -32.7823    2.3488  -32.7231    2.4189  -32.8274    2.5774
  6.000  -32.4708    2.2647  -32.7350    2.3925  -32.4233    2.2347  -32.3976    2.2608  -32.3389    2.3308  -32.4398    2.4821
  6.010  -32.0942    2.1822  -32.3486    2.3047  -32.0484    2.1549  -32.0251    2.1781  -31.9669    2.2479  -32.0646    2.3927
  6.020  -31.7293    2.1046  -31.9746    2.2222  -31.6852    2.0799  -31.6641    2.1002  -31.6064    2.1699  -31.7010    2.3085
  6.030  -31.3757    2.0315  -31.6124    2.1446  -31.3331    2.0091  -31.3141    2.0269  -31.2569    2.0964  -31.3486    2.2292
  6.040  -31.0327    1.9626  -31.2611    2.0715  -30.9915    1.9423  -30.9745    1.9577  -30.9177    2.0270  -31.0066    2.1544
  6.050  -30.6996    1.8975  -30.9204    2.0025  -30.6599    1.8793  -30.6447    1.8923  -30.5883    1.9615  -30.6746    2.0837
  6.060  -30.3761    1.8359  -30.5896    1.9373  -30.3377    1.8196  -30.3242    1.8305  -30.2683    1.8994  -30.3520    2.0169
  6.070  -30.0617    1.7776  -30.2682    1.8756  -30.0245    1.7631  -30.0125    1.7719  -29.9571    1.8407  -30.0383    1.9536
  6.080  -29.7558    1.7223  -29.9557    1.8172  -29.7199    1.7096  -29.7093    1.7164  -29.6543    1.7849  -29.7332    1.8937
  6.090  -29.4581    1.6699  -29.6518    1.7618  -29.4233    1.6588  -29.4140    1.6638  -29.3595    1.7321  -29.4362    1.8368
  6.100  -29.1681    1.6202  -29.3559    1.7093  -29.1344    1.6105  -29.1264    1.6138  -29.0723    1.6818  -29.1470    1.7827
  6.110  -28.8856    1.5728  -29.0678    1.6594  -28.8530    1.5646  -28.8461    1.5662  -28.7924    1.6340  -28.8651    1.7313
  6.120  -28.6102    1.5278  -28.7869    1.6119  -28.5785    1.5209  -28.5728    1.5210  -28.5195    1.5885  -28.5902    1.6824
  6.130  -28.3415    1.4849  -28.5132    1.5667  -28.3108    1.4793  -28.3060    1.4779  -28.2532    1.5452  -28.3220    1.6359
  6.140  -28.0793    1.4441  -28.2461    1.5237  -28.0495    1.4396  -28.0457    1.4368  -27.9932    1.5038  -28.0603    1.5915
  6.150  -27.8232    1.4051  -27.9854    1.4826  -27.7943    1.4018  -27.7914    1.3976  -27.7394    1.4643  -27.8047    1.5491
  6.160  -27.5731    1.3678  -27.7308    1.4435  -27.5450    1.3656  -27.5429    1.3602  -27.4913    1.4266  -27.5550    1.5086
  6.170  -27.3287    1.3322  -27.4821    1.4060  -27.3014    1.3310  -27.3000    1.3244  -27.2488    1.3906  -27.3110    1.4700
  6.180  -27.0896    1.2982  -27.2390    1.3703  -27.0631    1.2979  -27.0625    1.2902  -27.0117    1.3561  -27.0723    1.4330
  6.190  -26.8558    1.2656  -27.0013    1.3360  -26.8300    1.2662  -26.8301    1.2575  -26.7797    1.3230  -26.8389    1.3975
  6.200  -26.6270    1.2345  -26.7688    1.3033  -26.6019    1.2359  -26.6026    1.2262  -26.5526    1.2914  -26.6104    1.3636
  6.210  -26.4030    1.2046  -26.5412    1.2719  -26.3786    1.2068  -26.3798    1.1961  -26.3303    1.2610  -26.3867    1.3311
  6.220  -26.1836    1.1759  -26.3184    1.2418  -26.1598    1.1788  -26.1617    1.1673  -26.1125    1.2319  -26.1677    1.2999
  6.230  -25.9687    1.1484  -26.1002    1.2129  -25.9455    1.1520  -25.9479    1.1396  -25.8991    1.2039  -25.9530    1.2699
  6.240  -25.7581    1.1219  -25.8864    1.1851  -25.7355    1.1263  -25.7383    1.1131  -25.6899    1.1770  -25.7426    1.2412
  6.250  -25.5515    1.0965  -25.6769    1.1585  -25.5296    1.1015  -25.5328    1.0875  -25.4848    1.1512  -25.5364    1.2135
  6.260  -25.3490    1.0721  -25.4714    1.1329  -25.3276    1.0777  -25.3313    1.0630  -25.2836    1.1263  -25.3341    1.1869
  6.270  -25.1503    1.0486  -25.2699    1.1082  -25.1294    1.0547  -25.1335    1.0394  -25.0862    1.1023  -25.1356    1.1613
  6.280  -24.9553    1.0259  -25.0722    1.0845  -24.9349    1.0326  -24.9394    1.0167  -24.8925    1.0793  -24.9408    1.1366
  6.290  -24.7638    1.0041  -24.8782    1.0616  -24.7440    1.0113  -24.7488    0.9948  -24.7022    1.0570  -24.7496    1.1129
  6.300  -24.5759    0.9831  -24.6877    1.0396  -24.5565    0.9908  -24.5616    0.9736  -24.5154    1.0356  -24.5618    1.0900
  6.310  -24.3912    0.9629  -24.5007    1.0184  -24.3723    0.9710  -24.3777    0.9533  -24.3319    1.0149  -24.3774    1.0679
  6.320  -24.2098    0.9433  -24.3170    0.9979  -24.1913    0.9519  -24.1970    0.9337  -24.1516    0.9950  -24.1961    1.0466
  6.330  -24.0315    0.9244  -24.1364    0.9781  -24.0135    0.9334  -24.0194    0.9147  -23.9744    0.9757  -24.0180    1.0260
  6.340  -23.8562    0.9062  -23.9590    0.9590  -23.8386    0.9155  -23.8448    0.8964  -23.8001    0.9570  -23.8429    1.0061
  6.350  -23.6839    0.8886  -23.7846    0.9406  -23.6667    0.8983  -23.6731    0.8787  -23.6288    0.9390  -23.6708    0.9869
  6.360  -23.5144    0.8716  -23.6131    0.9227  -23.4976    0.8816  -23.5042    0.8616  -23.4602    0.9216  -23.5014    0.9683
  6.370  -23.3476    0.8551  -23.4444    0.9055  -23.3312    0.8655  -23.3381    0.8451  -23.2944    0.9047  -23.3348    0.9503
  6.380  -23.1836    0.8392  -23.2785    0.8888  -23.1675    0.8498  -23.1745    0.8291  -23.1312    0.8884  -23.1709    0.9329
  6.390  -23.0221    0.8237  -23.1152    0.8726  -23.0063    0.8347  -23.0136    0.8136  -22.9706    0.8726  -23.0095    0.9160
  6.400  -22.8631    0.8088  -22.9544    0.8569  -22.8477    0.8200  -22.8551    0.7986  -22.8124    0.8573  -22.8507    0.8997
  6.410  -22.7065    0.7943  -22.7962    0.8418  -22.6915    0.8058  -22.6990    0.7841  -22.6567    0.8424  -22.6943    0.8839
  6.420  -22.5524    0.7803  -22.6404    0.8271  -22.5377    0.7920  -22.5453    0.7700  -22.5033    0.8280  -22.5403    0.8685
  6.430  -22.4005    0.7667  -22.4870    0.8128  -22.3861    0.7786  -22.3939    0.7564  -22.3523    0.8140  -22.3885    0.8536
  6.440  -22.2509    0.7535  -22.3358    0.7990  -22.2368    0.7656  -22.2447    0.7431  -22.2034    0.8005  -22.2390    0.8392
  6.450  -22.1034    0.7407  -22.1869    0.7856  -22.0896    0.7530  -22.0977    0.7303  -22.0567    0.7873  -22.0917    0.8252
  6.460  -21.9581    0.7282  -22.0401    0.7725  -21.9446    0.7408  -21.9528    0.7178  -21.9120    0.7745  -21.9465    0.8116
  6.470  -21.8149    0.7162  -21.8955    0.7599  -21.8016    0.7289  -21.8099    0.7057  -21.7695    0.7621  -21.8034    0.7984
  6.480  -21.6736    0.7044  -21.7529    0.7476  -21.6606    0.7173  -21.6690    0.6940  -21.6289    0.7500  -21.6622    0.7855
  6.490  -21.5343    0.6930  -21.6123    0.7356  -21.5216    0.7061  -21.5300    0.6825  -21.4903    0.7382  -21.5231    0.7730
  6.500  -21.3969    0.6819  -21.4736    0.7240  -21.3845    0.6951  -21.3930    0.6714  -21.3535    0.7268  -21.3858    0.7609
  6.510  -21.2614    0.6712  -21.3368    0.7127  -21.2492    0.6845  -21.2578    0.6606  -21.2186    0.7157  -21.2504    0.7491
  6.520  -21.1277    0.6607  -21.2019    0.7017  -21.1157    0.6741  -21.1244    0.6501  -21.0855    0.7049  -21.1168    0.7376
  6.530  -20.9958    0.6505  -21.0688    0.6910  -20.9840    0.6641  -20.9927    0.6399  -20.9541    0.6943  -20.9849    0.7264
  6.540  -20.8655    0.6405  -20.9375    0.6806  -20.8540    0.6542  -20.8628    0.6299  -20.8245    0.6841  -20.8548    0.7155
  6.550  -20.7370    0.6309  -20.8078    0.6705  -20.7257    0.6447  -20.7345    0.6202  -20.6965    0.6741  -20.7264    0.7049
  6.560  -20.6101    0.6214  -20.6799    0.6606  -20.5991    0.6353  -20.6079    0.6108  -20.5702    0.6644  -20.5996    0.6945
  6.570  -20.4848    0.6123  -20.5536    0.6509  -20.4740    0.6263  -20.4829    0.6016  -20.4454    0.6549  -20.4744    0.6845
  6.580  -20.3611    0.6033  -20.4288    0.6416  -20.3505    0.6174  -20.3594    0.5927  -20.3222    0.6456  -20.3508    0.6747
  6.590  -20.2389    0.5946  -20.3057    0.6324  -20.2285    0.6088  -20.2374    0.5839  -20.2005    0.6366  -20.2287    0.6651
  6.600  -20.1182    0.5861  -20.1840    0.6235  -20.1080    0.6003  -20.1170    0.5754  -20.0803    0.6278  -20.1081    0.6557
  6.610  -19.9990    0.5778  -20.0638    0.6148  -19.9889    0.5921  -19.9979    0.5671  -19.9616    0.6192  -19.9889    0.6466
  6.620  -19.8812    0.5697  -19.9451    0.6063  -19.8713    0.5841  -19.8803    0.5590  -19.8443    0.6108  -19.8712    0.6377
  6.630  -19.7648    0.5618  -19.8279    0.5980  -19.7551    0.5762  -19.7641    0.5511  -19.7283    0.6026  -19.7549    0.6291
  6.640  -19.6498    0.5541  -19.7120    0.5899  -19.6402    0.5686  -19.6493    0.5434  -19.6138    0.5946  -19.6400    0.6206
  6.650  -19.5361    0.5466  -19.5974    0.5820  -19.5267    0.5611  -19.5358    0.5359  -19.5005    0.5868  -19.5264    0.6123
  6.660  -19.4237    0.5392  -19.4842    0.5743  -19.4145    0.5538  -19.4236    0.5285  -19.3886    0.5792  -19.4141    0.6042
  6.670  -19.3126    0.5321  -19.3724    0.5667  -19.3036    0.5466  -19.3127    0.5214  -19.2779    0.5717  -19.3030    0.5963
  6.680  -19.2027    0.5250  -19.2617    0.5594  -19.1939    0.5397  -19.2030    0.5143  -19.1685    0.5644  -19.1933    0.5886
  6.690  -19.0941    0.5182  -19.1524    0.5522  -19.0854    0.5328  -19.0945    0.5075  -19.0603    0.5573  -19.0848    0.5811
  6.700  -18.9867    0.5115  -19.0442    0.5451  -18.9782    0.5261  -18.9873    0.5008  -18.9533    0.5503  -18.9774    0.5737
  6.710  -18.8805    0.5049  -18.9373    0.5382  -18.8721    0.5196  -18.8812    0.4942  -18.8474    0.5435  -18.8713    0.5665
  6.720  -18.7754    0.4985  -18.8315    0.5315  -18.7672    0.5132  -18.7763    0.4878  -18.7427    0.5368  -18.7663    0.5594
  6.730  -18.6715    0.4923  -18.7269    0.5249  -18.6634    0.5070  -18.6725    0.4816  -18.6392    0.5303  -18.6624    0.5525
  6.740  -18.5687    0.4861  -18.6234    0.5185  -18.5607    0.5008  -18.5698    0.4754  -18.5367    0.5239  -18.5597    0.5457
  6.750  -18.4670    0.4801  -18.5211    0.5121  -18.4591    0.4949  -18.4682    0.4694  -18.4354    0.5176  -18.4580    0.5391
  6.760  -18.3663    0.4743  -18.4198    0.5060  -18.3585    0.4890  -18.3676    0.4636  -18.3351    0.5115  -18.3575    0.5326
  6.770  -18.2667    0.4685  -18.3195    0.4999  -18.2591    0.4832  -18.2681    0.4578  -18.2358    0.5055  -18.2579    0.5263
  6.780  -18.1681    0.4629  -18.2204    0.4940  -18.1606    0.4776  -18.1697    0.4522  -18.1376    0.4996  -18.1594    0.5201
  6.790  -18.0705    0.4574  -18.1222    0.4882  -18.0632    0.4721  -18.0722    0.4467  -18.0403    0.4939  -18.0619    0.5140
  6.800  -17.9740    0.4520  -18.0251    0.4825  -17.9667    0.4667  -17.9757    0.4413  -17.9441    0.4882  -17.9654    0.5080
  6.810  -17.8784    0.4467  -17.9289    0.4769  -17.8712    0.4614  -17.8802    0.4360  -17.8488    0.4827  -17.8699    0.5022
  6.820  -17.7837    0.4415  -17.8337    0.4714  -17.7767    0.4562  -17.7857    0.4308  -17.7545    0.4773  -17.7753    0.4965
  6.830  -17.6900    0.4364  -17.7395    0.4661  -17.6831    0.4511  -17.6921    0.4258  -17.6611    0.4720  -17.6817    0.4909
  6.840  -17.5972    0.4314  -17.6462    0.4608  -17.5904    0.4461  -17.5994    0.4208  -17.5686    0.4667  -17.5890    0.4854
  6.850  -17.5053    0.4265  -17.5538    0.4557  -17.4986    0.4412  -17.5076    0.4159  -17.4770    0.4616  -17.4972    0.4800
  6.860  -17.4144    0.4217  -17.4623    0.4506  -17.4078    0.4364  -17.4167    0.4111  -17.3863    0.4566  -17.4062    0.4747
  6.870  -17.3242    0.4171  -17.3717    0.4457  -17.3177    0.4317  -17.3267    0.4064  -17.2965    0.4517  -17.3162    0.4695
  6.880  -17.2350    0.4124  -17.2820    0.4408  -17.2286    0.4270  -17.2375    0.4018  -17.2076    0.4469  -17.2270    0.4644
  6.890  -17.1466    0.4079  -17.1931    0.4361  -17.1403    0.4225  -17.1492    0.3973  -17.1194    0.4421  -17.1387    0.4594
  6.900  -17.0590    0.4035  -17.1051    0.4314  -17.0528    0.4180  -17.0617    0.3929  -17.0321    0.4375  -17.0512    0.4545
  6.910  -16.9723    0.3991  -17.0179    0.4268  -16.9661    0.4137  -16.9750    0.3886  -16.9457    0.4329  -16.9645    0.4497
  6.920  -16.8863    0.3949  -16.9315    0.4223  -16.8803    0.4094  -16.8891    0.3843  -16.8600    0.4284  -16.8786    0.4450
  6.930  -16.8011    0.3907  -16.8459    0.4178  -16.7952    0.4051  -16.8040    0.3801  -16.7751    0.4240  -16.7935    0.4403
  6.940  -16.7168    0.3866  -16.7611    0.4135  -16.7109    0.4010  -16.7197    0.3760  -16.6909    0.4197  -16.7092    0.4358
  6.950  -16.6331    0.3825  -16.6771    0.4092  -16.6274    0.3969  -16.6361    0.3720  -16.6076    0.4154  -16.6256    0.4313
  6.960  -16.5503    0.3785  -16.5938    0.4050  -16.5446    0.3929  -16.5533    0.3680  -16.5250    0.4113  -16.5428    0.4269
  6.970  -16.4681    0.3746  -16.5113    0.4009  -16.4625    0.3890  -16.4712    0.3641  -16.4431    0.4072  -16.4608    0.4226
  6.980  -16.3867    0.3708  -16.4295    0.3969  -16.3812    0.3851  -16.3899    0.3603  -16.3619    0.4031  -16.3794    0.4183
  6.990  -16.3061    0.3671  -16.3485    0.3929  -16.3006    0.3813  -16.3093    0.3565  -16.2815    0.3992  -16.2988    0.4142
  7.000  -16.2261    0.3634  -16.2681    0.3890  -16.2207    0.3776  -16.2293    0.3528  -16.2018    0.3953  -16.2189    0.4101
  7.010  -16.1468    0.3597  -16.1885    0.3851  -16.1415    0.3739  -16.1501    0.3492  -16.1227    0.3914  -16.1397    0.4060
  7.020  -16.0682    0.3561  -16.1096    0.3813  -16.0630    0.3703  -16.0716    0.3456  -16.0444    0.3877  -16.0611    0.4021
  7.030  -15.9903    0.3526  -16.0313    0.3776  -15.9851    0.3667  -15.9937    0.3421  -15.9667    0.3840  -15.9833    0.3982
  7.040  -15.9130    0.3492  -15.9537    0.3740  -15.9080    0.3632  -15.9165    0.3387  -15.8896    0.3803  -15.9061    0.3944
  7.050  -15.8364    0.3458  -15.8768    0.3704  -15.8314    0.3598  -15.8399    0.3353  -15.8133    0.3768  -15.8296    0.3906
  7.060  -15.7605    0.3425  -15.8005    0.3668  -15.7555    0.3564  -15.7640    0.3320  -15.7375    0.3732  -15.7537    0.3869
  7.070  -15.6852    0.3392  -15.7249    0.3634  -15.6803    0.3531  -15.6887    0.3287  -15.6624    0.3698  -15.6784    0.3832
  7.080  -15.6105    0.3359  -15.6499    0.3599  -15.6056    0.3498  -15.6141    0.3255  -15.5879    0.3664  -15.6038    0.3797
  7.090  -15.5364    0.3328  -15.5756    0.3566  -15.5316    0.3466  -15.5400    0.3223  -15.5141    0.3630  -15.5298    0.3761
  7.100  -15.4629    0.3296  -15.5018    0.3533  -15.4582    0.3434  -15.4666    0.3192  -15.4408    0.3597  -15.4563    0.3727
  7.110  -15.3900    0.3266  -15.4286    0.3500  -15.3854    0.3403  -15.3938    0.3161  -15.3681    0.3565  -15.3835    0.3693
  7.120  -15.3178    0.3235  -15.3561    0.3468  -15.3132    0.3372  -15.3215    0.3131  -15.2961    0.3533  -15.3113    0.3659
  7.130  -15.2461    0.3206  -15.2841    0.3436  -15.2416    0.3342  -15.2499    0.3101  -15.2246    0.3501  -15.2397    0.3626
  7.140  -15.1749    0.3176  -15.2127    0.3405  -15.1705    0.3312  -15.1788    0.3072  -15.1536    0.3470  -15.1686    0.3593
  7.150  -15.1044    0.3148  -15.1419    0.3375  -15.1000    0.3283  -15.1083    0.3043  -15.0833    0.3440  -15.0981    0.3561
  7.160  -15.0344    0.3119  -15.0717    0.3345  -15.0300    0.3254  -15.0383    0.3015  -15.0135    0.3410  -15.0282    0.3530
  7.170  -14.9649    0.3091  -15.0020    0.3315  -14.9606    0.3226  -14.9689    0.2987  -14.9442    0.3380  -14.9588    0.3499
  7.180  -14.8960    0.3064  -14.9328    0.3286  -14.8918    0.3198  -14.9000    0.2959  -14.8755    0.3351  -14.8899    0.3468
  7.190  -14.8277    0.3037  -14.8642    0.3257  -14.8235    0.3170  -14.8317    0.2932  -14.8073    0.3322  -14.8216    0.3438
  7.200  -14.7598    0.3010  -14.7962    0.3229  -14.7557    0.3143  -14.7638    0.2905  -14.7396    0.3294  -14.7538    0.3409
  7.210  -14.6925    0.2984  -14.7286    0.3201  -14.6884    0.3116  -14.6965    0.2879  -14.6725    0.3266  -14.6866    0.3379
  7.220  -14.6257    0.2958  -14.6616    0.3173  -14.6217    0.3090  -14.6298    0.2853  -14.6059    0.3239  -14.6198    0.3351
  7.230  -14.5594    0.2932  -14.5951    0.3146  -14.5554    0.3064  -14.5635    0.2828  -14.5398    0.3212  -14.5536    0.3322
  7.240  -14.4936    0.2907  -14.5291    0.3119  -14.4897    0.3038  -14.4977    0.2803  -14.4741    0.3185  -14.4879    0.3294
  7.250  -14.4283    0.2882  -14.4636    0.3093  -14.4244    0.3013  -14.4324    0.2778  -14.4090    0.3159  -14.4226    0.3267
  7.260  -14.3635    0.2858  -14.3986    0.3067  -14.3596    0.2988  -14.3676    0.2753  -14.3444    0.3133  -14.3578    0.3240
  7.270  -14.2991    0.2834  -14.3340    0.3041  -14.2953    0.2964  -14.3033    0.2729  -14.2802    0.3108  -14.2936    0.3213
  7.280  -14.2353    0.2810  -14.2700    0.3016  -14.2315    0.2939  -14.2395    0.2706  -14.2165    0.3082  -14.2298    0.3187
  7.290  -14.1719    0.2787  -14.2064    0.2991  -14.1682    0.2915  -14.1761    0.2682  -14.1533    0.3058  -14.1664    0.3161
  7.300  -14.1089    0.2764  -14.1433    0.2967  -14.1053    0.2892  -14.1132    0.2659  -14.0905    0.3033  -14.1036    0.3135
  7.310  -14.0465    0.2741  -14.0807    0.2943  -14.0428    0.2869  -14.0508    0.2636  -14.0282    0.3009  -14.0411    0.3110
  7.320  -13.9844    0.2719  -14.0185    0.2919  -13.9809    0.2846  -13.9888    0.2614  -13.9664    0.2985  -13.9792    0.3085
  7.330  -13.9229    0.2697  -13.9568    0.2895  -13.9193    0.2823  -13.9272    0.2592  -13.9049    0.2962  -13.9177    0.3060
  7.340  -13.8617    0.2675  -13.8955    0.2872  -13.8582    0.2801  -13.8661    0.2570  -13.8440    0.2939  -13.8566    0.3036
  7.350  -13.8010    0.2654  -13.8346    0.2849  -13.7976    0.2779  -13.8054    0.2549  -13.7834    0.2916  -13.7960    0.3012
  7.360  -13.7408    0.2633  -13.7742    0.2827  -13.7373    0.2757  -13.7452    0.2527  -13.7233    0.2894  -13.7357    0.2989
  7.370  -13.6809    0.2612  -13.7142    0.2804  -13.6775    0.2736  -13.6853    0.2506  -13.6636    0.2871  -13.6760    0.2966
  7.380  -13.6215    0.2591  -13.6546    0.2782  -13.6181    0.2715  -13.6259    0.2486  -13.6043    0.2850  -13.6166    0.2943
  7.390  -13.5625    0.2571  -13.5955    0.2761  -13.5592    0.2694  -13.5669    0.2465  -13.5455    0.2828  -13.5576    0.2920
  7.400  -13.5039    0.2551  -13.5367    0.2739  -13.5006    0.2674  -13.5083    0.2445  -13.4870    0.2807  -13.4991    0.2898
  7.410  -13.4457    0.2531  -13.4784    0.2718  -13.4424    0.2653  -13.4502    0.2426  -13.4290    0.2786  -13.4409    0.2876
  7.420  -13.3879    0.2512  -13.4205    0.2698  -13.3847    0.2634  -13.3924    0.2406  -13.3713    0.2765  -13.3832    0.2855
  7.430  -13.3305    0.2493  -13.3630    0.2677  -13.3273    0.2614  -13.3350    0.2387  -13.3141    0.2745  -13.3258    0.2833
  7.440  -13.2734    0.2474  -13.3058    0.2657  -13.2703    0.2594  -13.2780    0.2368  -13.2572    0.2725  -13.2689    0.2812
  7.450  -13.2168    0.2455  -13.2491    0.2637  -13.2137    0.2575  -13.2214    0.2349  -13.2007    0.2705  -13.2123    0.2791
  7.460  -13.1605    0.2437  -13.1927    0.2617  -13.1575    0.2556  -13.1651    0.2330  -13.1446    0.2685  -13.1561    0.2771
  7.470  -13.1047    0.2418  -13.1367    0.2598  -13.1016    0.2537  -13.1093    0.2312  -13.0888    0.2666  -13.1003    0.2751
  7.480  -13.0491    0.2400  -13.0811    0.2578  -13.0461    0.2519  -13.0538    0.2294  -13.0335    0.2647  -13.0448    0.2731
  7.490  -12.9940    0.2383  -13.0259    0.2559  -12.9910    0.2501  -12.9986    0.2276  -12.9785    0.2628  -12.9897    0.2711
  7.500  -12.9392    0.2365  -12.9710    0.2541  -12.9363    0.2483  -12.9439    0.2258  -12.9238    0.2609  -12.9350    0.2691
  7.510  -12.8848    0.2348  -12.9165    0.2522  -12.8819    0.2465  -12.8895    0.2241  -12.8696    0.2591  -12.8807    0.2672
  7.520  -12.8307    0.2331  -12.8624    0.2504  -12.8278    0.2447  -12.8354    0.2224  -12.8156    0.2573  -12.8267    0.2653
  7.530  -12.7770    0.2314  -12.8086    0.2486  -12.7742    0.2430  -12.7817    0.2207  -12.7621    0.2555  -12.7730    0.2635
  7.540  -12.7237    0.2298  -12.7551    0.2468  -12.7208    0.2413  -12.7284    0.2190  -12.7088    0.2537  -12.7197    0.2616
  7.550  -12.6706    0.2281  -12.7020    0.2451  -12.6678    0.2396  -12.6754    0.2173  -12.6559    0.2520  -12.6667    0.2598
  7.560  -12.6179    0.2265  -12.6493    0.2433  -12.6152    0.2379  -12.6227    0.2157  -12.6034    0.2503  -12.6141    0.2580
  7.570  -12.5656    0.2249  -12.5968    0.2416  -12.5628    0.2363  -12.5703    0.2141  -12.5512    0.2486  -12.5618    0.2562
  7.580  -12.5136    0.2233  -12.5447    0.2399  -12.5108    0.2347  -12.5183    0.2125  -12.4993    0.2469  -12.5098    0.2545
  7.590  -12.4619    0.2218  -12.4930    0.2382  -12.4592    0.2331  -12.4667    0.2109  -12.4477    0.2452  -12.4582    0.2527
  7.600  -12.4105    0.2202  -12.4416    0.2366  -12.4078    0.2315  -12.4153    0.2093  -12.3965    0.2436  -12.4069    0.2510
  7.610  -12.3594    0.2187  -12.3905    0.2350  -12.3568    0.2299  -12.3643    0.2078  -12.3455    0.2420  -12.3559    0.2493
  7.620  -12.3087    0.2172  -12.3397    0.2333  -12.3061    0.2284  -12.3135    0.2062  -12.2949    0.2404  -12.3052    0.2477
  7.630  -12.2583    0.2158  -12.2892    0.2318  -12.2557    0.2268  -12.2631    0.2047  -12.2446    0.2388  -12.2548    0.2460
  7.640  -12.2081    0.2143  -12.2390    0.2302  -12.2056    0.2253  -12.2130    0.2032  -12.1947    0.2373  -12.2048    0.2444
  7.650  -12.1583    0.2129  -12.1892    0.2286  -12.1558    0.2238  -12.1632    0.2018  -12.1450    0.2357  -12.1550    0.2428
  7.660  -12.1088    0.2114  -12.1397    0.2271  -12.1063    0.2224  -12.1137    0.2003  -12.0956    0.2342  -12.1056    0.2412
  7.670  -12.0596    0.2100  -12.0904    0.2256  -12.0571    0.2209  -12.0645    0.1989  -12.0465    0.2327  -12.0564    0.2397
  7.680  -12.0107    0.2086  -12.0415    0.2241  -12.0082    0.2195  -12.0156    0.1975  -11.9977    0.2312  -12.0076    0.2381
  7.690  -11.9621    0.2073  -11.9928    0.2226  -11.9596    0.2180  -11.9670    0.1961  -11.9492    0.2298  -11.9590    0.2366
  7.700  -11.9137    0.2059  -11.9445    0.2211  -11.9113    0.2166  -11.9187    0.1947  -11.9010    0.2283  -11.9108    0.2351
  7.710  -11.8657    0.2046  -11.8964    0.2197  -11.8633    0.2152  -11.8707    0.1933  -11.8531    0.2269  -11.8628    0.2336
  7.720  -11.8179    0.2033  -11.8487    0.2183  -11.8155    0.2139  -11.8229    0.1919  -11.8055    0.2255  -11.8151    0.2322
  7.730  -11.7704    0.2020  -11.8012    0.2169  -11.7680    0.2125  -11.7755    0.1906  -11.7581    0.2241  -11.7677    0.2307
  7.740  -11.7232    0.2007  -11.7540    0.2155  -11.7208    0.2112  -11.7283    0.1893  -11.7110    0.2228  -11.7205    0.2293
  7.750  -11.6763    0.1994  -11.7070    0.2141  -11.6739    0.2099  -11.6814    0.1879  -11.6642    0.2214  -11.6736    0.2279
  7.760  -11.6296    0.1982  -11.6604    0.2127  -11.6273    0.2086  -11.6347    0.1866  -11.6177    0.2201  -11.6270    0.2265
  7.770  -11.5832    0.1969  -11.6140    0.2114  -11.5809    0.2073  -11.5883    0.1854  -11.5714    0.2188  -11.5807    0.2251
  7.780  -11.5371    0.1957  -11.5679    0.2100  -11.5348    0.2060  -11.5422    0.1841  -11.5254    0.2175  -11.5346    0.2238
  7.790  -11.4912    0.1945  -11.5220    0.2087  -11.4889    0.2047  -11.4964    0.1828  -11.4796    0.2162  -11.4888    0.2224
  7.800  -11.4456    0.1933  -11.4764    0.2074  -11.4433    0.2035  -11.4508    0.1816  -11.4341    0.2149  -11.4433    0.2211
  7.810  -11.4002    0.1921  -11.4311    0.2062  -11.3980    0.2023  -11.4054    0.1804  -11.3889    0.2137  -11.3980    0.2198
  7.820  -11.3551    0.1910  -11.3860    0.2049  -11.3529    0.2010  -11.3603    0.1791  -11.3439    0.2124  -11.3530    0.2185
  7.830  -11.3103    0.1898  -11.3412    0.2036  -11.3081    0.1998  -11.3155    0.1779  -11.2992    0.2112  -11.3082    0.2172
  7.840  -11.2657    0.1887  -11.2966    0.2024  -11.2635    0.1987  -11.2709    0.1767  -11.2547    0.2100  -11.2636    0.2160
  7.850  -11.2213    0.1875  -11.2523    0.2012  -11.2191    0.1975  -11.2266    0.1756  -11.2105    0.2088  -11.2194    0.2147
  7.860  -11.1772    0.1864  -11.2082    0.2000  -11.1750    0.1963  -11.1825    0.1744  -11.1665    0.2077  -11.1753    0.2135
  7.870  -11.1333    0.1854  -11.1644    0.1988  -11.1311    0.1952  -11.1386    0.1732  -11.1227    0.2065  -11.1315    0.2123
  7.880  -11.0897    0.1843  -11.1208    0.1976  -11.0875    0.1941  -11.0950    0.1721  -11.0792    0.2054  -11.0879    0.2111
  7.890  -11.0462    0.1832  -11.0775    0.1964  -11.0441    0.1929  -11.0516    0.1710  -11.0359    0.2042  -11.0446    0.2099
  7.900  -11.0031    0.1822  -11.0343    0.1953  -11.0010    0.1918  -11.0085    0.1698  -10.9929    0.2031  -11.0015    0.2088
  7.910  -10.9601    0.1811  -10.9915    0.1941  -10.9580    0.1908  -10.9655    0.1687  -10.9500    0.2020  -10.9586    0.2076
  7.920  -10.9174    0.1801  -10.9488    0.1930  -10.9153    0.1897  -10.9228    0.1676  -10.9075    0.2009  -10.9160    0.2065
  7.930  -10.8749    0.1791  -10.9064    0.1919  -10.8728    0.1886  -10.8804    0.1666  -10.8651    0.1999  -10.8735    0.2054
  7.940  -10.8326    0.1781  -10.8642    0.1908  -10.8306    0.1876  -10.8381    0.1655  -10.8229    0.1988  -10.8313    0.2043
  7.950  -10.7906    0.1771  -10.8222    0.1897  -10.7885    0.1865  -10.7961    0.1644  -10.7810    0.1978  -10.7894    0.2032
  7.960  -10.7487    0.1761  -10.7805    0.1886  -10.7467    0.1855  -10.7543    0.1634  -10.7393    0.1967  -10.7476    0.2021
  7.970  -10.7071    0.1752  -10.7389    0.1876  -10.7051    0.1845  -10.7127    0.1623  -10.6978    0.1957  -10.7061    0.2011
  7.980  -10.6657    0.1742  -10.6976    0.1865  -10.6636    0.1835  -10.6713    0.1613  -10.6565    0.1947  -10.6647    0.2000
  7.990  -10.6244    0.1733  -10.6565    0.1855  -10.6224    0.1825  -10.6301    0.1603  -10.6154    0.1938  -10.6236    0.1990
  8.000  -10.5834    0.1724  -10.6156    0.1845  -10.5815    0.1815  -10.5891    0.1593  -10.5745    0.1928  -10.5827    0.1980
  8.010  -10.5426    0.1715  -10.5750    0.1835  -10.5407    0.1806  -10.5483    0.1583  -10.5339    0.1918  -10.5420    0.1970
  8.020  -10.5020    0.1706  -10.5345    0.1825  -10.5001    0.1796  -10.5078    0.1573  -10.4934    0.1909  -10.5014    0.1960
  8.030  -10.4616    0.1697  -10.4942    0.1815  -10.4597    0.1787  -10.4674    0.1563  -10.4531    0.1900  -10.4611    0.1950
  8.040  -10.4214    0.1688  -10.4542    0.1805  -10.4195    0.1778  -10.4272    0.1553  -10.4131    0.1890  -10.4210    0.1941
  8.050  -10.3814    0.1679  -10.4143    0.1795  -10.3795    0.1769  -10.3873    0.1544  -10.3732    0.1881  -10.3811    0.1931
  8.060  -10.3416    0.1671  -10.3746    0.1786  -10.3397    0.1760  -10.3475    0.1534  -10.3335    0.1873  -10.3414    0.1922
  8.070  -10.3020    0.1663  -10.3352    0.1777  -10.3001    0.1751  -10.3079    0.1525  -10.2940    0.1864  -10.3018    0.1913
  8.080  -10.2626    0.1654  -10.2959    0.1767  -10.2606    0.1742  -10.2685    0.1516  -10.2547    0.1855  -10.2625    0.1904
  8.090  -10.2233    0.1646  -10.2568    0.1758  -10.2214    0.1733  -10.2293    0.1506  -10.2156    0.1847  -10.2233    0.1895
  8.100  -10.1842    0.1638  -10.2179    0.1749  -10.1823    0.1725  -10.1902    0.1497  -10.1767    0.1838  -10.1844    0.1886
  8.110  -10.1454    0.1630  -10.1792    0.1740  -10.1435    0.1717  -10.1514    0.1488  -10.1379    0.1830  -10.1456    0.1878
  8.120  -10.1066    0.1623  -10.1407    0.1731  -10.1048    0.1708  -10.1127    0.1479  -10.0994    0.1822  -10.1070    0.1869
  8.130  -10.0681    0.1615  -10.1023    0.1723  -10.0662    0.1700  -10.0742    0.1470  -10.0610    0.1814  -10.0685    0.1861
  8.140  -10.0298    0.1607  -10.0642    0.1714  -10.0279    0.1692  -10.0359    0.1461  -10.0227    0.1806  -10.0303    0.1853
  8.150   -9.9916    0.1600  -10.0262    0.1706   -9.9897    0.1684   -9.9978    0.1453   -9.9847    0.1799   -9.9922    0.1845
  8.160   -9.9535    0.1593   -9.9884    0.1697   -9.9517    0.1676   -9.9598    0.1444   -9.9468    0.1791   -9.9543    0.1837
  8.170   -9.9157    0.1586   -9.9507    0.1689   -9.9138    0.1669   -9.9220    0.1436   -9.9091    0.1784   -9.9165    0.1829
  8.180   -9.8780    0.1579   -9.9133    0.1681   -9.8761    0.1661   -9.8843    0.1427   -9.8716    0.1777   -9.8790    0.1822
  8.190   -9.8405    0.1572   -9.8760    0.1673   -9.8386    0.1654   -9.8469    0.1419   -9.8342    0.1770   -9.8416    0.1814
  8.200   -9.8031    0.1565   -9.8389    0.1665   -9.8013    0.1646   -9.8095    0.1410   -9.7970    0.1763   -9.8043    0.1807
  8.210   -9.7659    0.1558   -9.8019    0.1657   -9.7641    0.1639   -9.7724    0.1402   -9.7599    0.1756   -9.7672    0.1800
  8.220   -9.7288    0.1552   -9.7651    0.1650   -9.7270    0.1632   -9.7354    0.1394   -9.7230    0.1749   -9.7303    0.1793
  8.230   -9.6919    0.1545   -9.7285    0.1642   -9.6901    0.1625   -9.6985    0.1386   -9.6863    0.1743   -9.6935    0.1786
  8.240   -9.6552    0.1539   -9.6920    0.1635   -9.6534    0.1618   -9.6618    0.1378   -9.6497    0.1736   -9.6569    0.1779
  8.250   -9.6186    0.1533   -9.6557    0.1627   -9.6168    0.1611   -9.6253    0.1370   -9.6133    0.1730   -9.6204    0.1773
  8.260   -9.5821    0.1527   -9.6196    0.1620   -9.5803    0.1605   -9.5889    0.1362   -9.5770    0.1724   -9.5841    0.1766
  8.270   -9.5458    0.1521   -9.5836    0.1613   -9.5440    0.1598   -9.5526    0.1354   -9.5408    0.1718   -9.5479    0.1760
  8.280   -9.5096    0.1515   -9.5477    0.1606   -9.5078    0.1592   -9.5165    0.1347   -9.5048    0.1712   -9.5118    0.1754
  8.290   -9.4736    0.1509   -9.5120    0.1599   -9.4718    0.1586   -9.4805    0.1339   -9.4689    0.1706   -9.4759    0.1748
  8.300   -9.4377    0.1503   -9.4765    0.1592   -9.4359    0.1579   -9.4447    0.1332   -9.4332    0.1701   -9.4402    0.1742
  8.310   -9.4020    0.1498   -9.4410    0.1586   -9.4001    0.1573   -9.4090    0.1324   -9.3976    0.1695   -9.4046    0.1736
  8.320   -9.3663    0.1493   -9.4058    0.1579   -9.3645    0.1568   -9.3734    0.1317   -9.3622    0.1690   -9.3691    0.1731
  8.330   -9.3308    0.1488   -9.3706    0.1573   -9.3290    0.1562   -9.3380    0.1309   -9.3269    0.1685   -9.3337    0.1725
  8.340   -9.2954    0.1483   -9.3357    0.1566   -9.2936    0.1556   -9.3027    0.1302   -9.2917    0.1680   -9.2985    0.1720
  8.350   -9.2602    0.1478   -9.3008    0.1560   -9.2584    0.1551   -9.2675    0.1295   -9.2566    0.1675   -9.2634    0.1715
  8.360   -9.2251    0.1473   -9.2661    0.1554   -9.2232    0.1545   -9.2324    0.1288   -9.2217    0.1671   -9.2284    0.1710
  8.370   -9.1900    0.1468   -9.2315    0.1548   -9.1882    0.1540   -9.1975    0.1281   -9.1868    0.1666   -9.1936    0.1705
  8.380   -9.1551    0.1464   -9.1970    0.1542   -9.1533    0.1535   -9.1627    0.1274   -9.1521    0.1662   -9.1588    0.1701
  8.390   -9.1204    0.1459   -9.1627    0.1536   -9.1185    0.1530   -9.1279    0.1267   -9.1175    0.1658   -9.1242    0.1697
  8.400   -9.0857    0.1455   -9.1285    0.1531   -9.0839    0.1525   -9.0933    0.1260   -9.0831    0.1654   -9.0897    0.1692
  8.410   -9.0511    0.1451   -9.0944    0.1525   -9.0493    0.1520   -9.0589    0.1253   -9.0487    0.1650   -9.0553    0.1688
  8.420   -9.0167    0.1447   -9.0605    0.1520   -9.0148    0.1516   -9.0245    0.1246   -9.0145    0.1647   -9.0211    0.1684
  8.430   -8.9823    0.1443   -9.0266    0.1514   -8.9805    0.1511   -8.9902    0.1240   -8.9803    0.1643   -8.9869    0.1681
  8.440   -8.9480    0.1440   -8.9929    0.1509   -8.9462    0.1507   -8.9560    0.1233   -8.9463    0.1640   -8.9528    0.1677
  8.450   -8.9139    0.1436   -8.9593    0.1504   -8.9120    0.1503   -8.9220    0.1226   -8.9124    0.1637   -8.9188    0.1674
  8.460   -8.8798    0.1433   -8.9258    0.1499   -8.8779    0.1499   -8.8880    0.1220   -8.8785    0.1634   -8.8850    0.1671
  8.470   -8.8458    0.1430   -8.8924    0.1494   -8.8440    0.1495   -8.8541    0.1214   -8.8448    0.1632   -8.8512    0.1668
  8.480   -8.8119    0.1427   -8.8591    0.1490   -8.8101    0.1491   -8.8203    0.1207   -8.8111    0.1629   -8.8175    0.1666
  8.490   -8.7781    0.1424   -8.8259    0.1485   -8.7762    0.1488   -8.7866    0.1201   -8.7776    0.1627   -8.7839    0.1663
  8.500   -8.7444    0.1422   -8.7928    0.1481   -8.7425    0.1485   -8.7530    0.1195   -8.7441    0.1625   -8.7504    0.1661
  8.510   -8.7108    0.1419   -8.7599    0.1477   -8.7088    0.1481   -8.7194    0.1189   -8.7107    0.1623   -8.7170    0.1659
  8.520   -8.6772    0.1417   -8.7270    0.1473   -8.6752    0.1478   -8.6859    0.1182   -8.6774    0.1622   -8.6837    0.1657
  8.530   -8.6437    0.1415   -8.6942    0.1469   -8.6417    0.1476   -8.6525    0.1176   -8.6441    0.1621   -8.6504    0.1656
  8.540   -8.6102    0.1413   -8.6615    0.1465   -8.6083    0.1473   -8.6192    0.1170   -8.6110    0.1620   -8.6172    0.1654
  8.550   -8.5768    0.1412   -8.6289    0.1461   -8.5749    0.1470   -8.5859    0.1164   -8.5779    0.1619   -8.5841    0.1653
  8.560   -8.5435    0.1410   -8.5964    0.1457   -8.5415    0.1468   -8.5527    0.1159   -8.5448    0.1618   -8.5510    0.1653
  8.570   -8.5103    0.1409   -8.5639    0.1454   -8.5082    0.1466   -8.5196    0.1153   -8.5119    0.1618   -8.5180    0.1652
  8.580   -8.4770    0.1408   -8.5316    0.1451   -8.4750    0.1464   -8.4865    0.1147   -8.4790    0.1618   -8.4851    0.1652
  8.590   -8.4439    0.1407   -8.4993    0.1448   -8.4418    0.1463   -8.4535    0.1141   -8.4461    0.1618   -8.4522    0.1652
  8.600   -8.4108    0.1407   -8.4671    0.1445   -8.4087    0.1461   -8.4205    0.1136   -8.4133    0.1619   -8.4194    0.1652
  8.610   -8.3777    0.1407   -8.4349    0.1442   -8.3756    0.1460   -8.3875    0.1130   -8.3806    0.1620   -8.3866    0.1653
  8.620   -8.3446    0.1407   -8.4028    0.1440   -8.3425    0.1459   -8.3546    0.1125   -8.3479    0.1621   -8.3539    0.1654
  8.630   -8.3116    0.1407   -8.3708    0.1437   -8.3094    0.1458   -8.3217    0.1119   -8.3152    0.1623   -8.3212    0.1655
  8.640   -8.2786    0.1408   -8.3389    0.1435   -8.2764    0.1458   -8.2889    0.1114   -8.2826    0.1624   -8.2885    0.1657
  8.650   -8.2456    0.1409   -8.3070    0.1433   -8.2434    0.1458   -8.2560    0.1109   -8.2500    0.1627   -8.2559    0.1659
  8.660   -8.2126    0.1410   -8.2752    0.1431   -8.2104    0.1458   -8.2232    0.1104   -8.2174    0.1629   -8.2233    0.1661
  8.670   -8.1797    0.1412   -8.2434    0.1430   -8.1774    0.1458   -8.1904    0.1098   -8.1848    0.1632   -8.1907    0.1664
  8.680   -8.1467    0.1413   -8.2116    0.1428   -8.1444    0.1459   -8.1576    0.1093   -8.1523    0.1636   -8.1582    0.1667
  8.690   -8.1137    0.1416   -8.1799    0.1427   -8.1114    0.1460   -8.1248    0.1088   -8.1197    0.1640   -8.1256    0.1671
  8.700   -8.0807    0.1418   -8.1483    0.1426   -8.0784    0.1461   -8.0920    0.1083   -8.0872    0.1644   -8.0930    0.1675
  8.710   -8.0477    0.1421   -8.1166    0.1425   -8.0453    0.1462   -8.0592    0.1078   -8.0547    0.1649   -8.0605    0.1680
  8.720   -8.0147    0.1425   -8.0850    0.1425   -8.0122    0.1464   -8.0263    0.1074   -8.0221    0.1654   -8.0279    0.1685
  8.730   -7.9817    0.1428   -8.0535    0.1424   -7.9791    0.1467   -7.9935    0.1069   -7.9895    0.1660   -7.9953    0.1690
  8.740   -7.9486    0.1433   -8.0219    0.1424   -7.9460    0.1469   -7.9606    0.1064   -7.9570    0.1666   -7.9627    0.1696
  8.750   -7.9154    0.1437   -7.9904    0.1424   -7.9128    0.1472   -7.9276    0.1060   -7.9244    0.1673   -7.9301    0.1703
  8.760   -7.8822    0.1443   -7.9589    0.1425   -7.8795    0.1476   -7.8946    0.1055   -7.8917    0.1680   -7.8974    0.1710
  8.770   -7.8490    0.1448   -7.9274    0.1426   -7.8462    0.1480   -7.8616    0.1051   -7.8590    0.1688   -7.8647    0.1718
  8.780   -7.8156    0.1455   -7.8958    0.1427   -7.8128    0.1484   -7.8285    0.1046   -7.8263    0.1697   -7.8320    0.1727
  8.790   -7.7822    0.1462   -7.8643    0.1428   -7.7793    0.1489   -7.7953    0.1042   -7.7935    0.1706   -7.7991    0.1736
  8.800   -7.7487    0.1469   -7.8328    0.1430   -7.7457    0.1495   -7.7620    0.1038   -7.7606    0.1716   -7.7662    0.1746
  8.810   -7.7151    0.1477   -7.8012    0.1432   -7.7120    0.1501   -7.7286    0.1034   -7.7277    0.1727   -7.7333    0.1756
  8.820   -7.6813    0.1486   -7.7697    0.1434   -7.6782    0.1507   -7.6951    0.1030   -7.6946    0.1739   -7.7002    0.1768
  8.830   -7.6475    0.1496   -7.7381    0.1437   -7.6442    0.1514   -7.6615    0.1026   -7.6615    0.1752   -7.6671    0.1780
  8.840   -7.6134    0.1506   -7.7064    0.1440   -7.6101    0.1522   -7.6277    0.1022   -7.6283    0.1765   -7.6338    0.1794
  8.850   -7.5793    0.1517   -7.6747    0.1444   -7.5758    0.1531   -7.5938    0.1019   -7.5949    0.1780   -7.6004    0.1808
  8.860   -7.5450    0.1529   -7.6430    0.1448   -7.5414    0.1540   -7.5598    0.1015   -7.5614    0.1795   -7.5669    0.1823
  8.870   -7.5104    0.1542   -7.6112    0.1452   -7.5067    0.1550   -7.5255    0.1012   -7.5278    0.1812   -7.5333    0.1840
  8.880   -7.4757    0.1556   -7.5794    0.1457   -7.4719    0.1561   -7.4911    0.1009   -7.4940    0.1830   -7.4995    0.1857
  8.890   -7.4408    0.1571   -7.5474    0.1462   -7.4368    0.1572   -7.4564    0.1006   -7.4600    0.1849   -7.4655    0.1876
  8.900   -7.4056    0.1587   -7.5154    0.1468   -7.4014    0.1585   -7.4216    0.1003   -7.4259    0.1869   -7.4313    0.1896
  8.910   -7.3702    0.1605   -7.4833    0.1475   -7.3658    0.1599   -7.3864    0.1000   -7.3915    0.1891   -7.3970    0.1918
  8.920   -7.3345    0.1624   -7.4511    0.1482   -7.3299    0.1614   -7.3510    0.0997   -7.3570    0.1914   -7.3624    0.1941
  8.930   -7.2985    0.1644   -7.4187    0.1489   -7.2937    0.1629   -7.3153    0.0995   -7.3221    0.1939   -7.3275    0.1966
  8.940   -7.2622    0.1666   -7.3862    0.1498   -7.2572    0.1647   -7.2793    0.0992   -7.2871    0.1966   -7.2924    0.1993
  8.950   -7.2255    0.1689   -7.3536    0.1506   -7.2202    0.1665   -7.2430    0.0990   -7.2517    0.1995   -7.2571    0.2021
  8.960   -7.1884    0.1715   -7.3209    0.1516   -7.1829    0.1685   -7.2062    0.0988   -7.2160    0.2025   -7.2214    0.2052
  8.970   -7.1510    0.1742   -7.2879    0.1527   -7.1451    0.1707   -7.1691    0.0987   -7.1801    0.2058   -7.1854    0.2085
  8.980   -7.1131    0.1771   -7.2548    0.1538   -7.1069    0.1730   -7.1315    0.0986   -7.1437    0.2094   -7.1490    0.2120
  8.990   -7.0747    0.1803   -7.2215    0.1550   -7.0682    0.1755   -7.0934    0.0984   -7.1070    0.2132   -7.1123    0.2158
  9.000   -7.0358    0.1837   -7.1880    0.1563   -7.0289    0.1782   -7.0548    0.0984   -7.0699    0.2172   -7.0752    0.2198
  9.010   -6.9964    0.1874   -7.1542    0.1577   -6.9890    0.1812   -7.0156    0.0983   -7.0323    0.2216   -7.0376    0.2242
  9.020   -6.9564    0.1914   -7.1202    0.1592   -6.9485    0.1843   -6.9759    0.0983   -6.9943    0.2264   -6.9995    0.2289
  9.030   -6.9157    0.1957   -7.0860    0.1609   -6.9072    0.1878   -6.9354    0.0984   -6.9557    0.2314   -6.9609    0.2340
  9.040   -6.8743    0.2004   -7.0514    0.1626   -6.8653    0.1915   -6.8943    0.0985   -6.9166    0.2369   -6.9218    0.2395
  9.050   -6.8322    0.2054   -7.0165    0.1645   -6.8225    0.1955   -6.8523    0.0986   -6.8769    0.2429   -6.8821    0.2454
  9.060   -6.7892    0.2110   -6.9813    0.1666   -6.7787    0.1999   -6.8095    0.0988   -6.8365    0.2493   -6.8417    0.2518
  9.070   -6.7454    0.2170   -6.9457    0.1687   -6.7341    0.2046   -6.7658    0.0991   -6.7954    0.2562   -6.8006    0.2587
  9.080   -6.7006    0.2235   -6.9098    0.1711   -6.6883    0.2098   -6.7210    0.0994   -6.7536    0.2637   -6.7588    0.2662
  9.090   -6.6548    0.2306   -6.8734    0.1736   -6.6414    0.2155   -6.6751    0.0999   -6.7110    0.2719   -6.7162    0.2744
  9.100   -6.6078    0.2384   -6.8365    0.1763   -6.5933    0.2216   -6.6280    0.1004   -6.6675    0.2808   -6.6727    0.2832
  9.110   -6.5597    0.2470   -6.7992    0.1792   -6.5437    0.2284   -6.5795    0.1010   -6.6231    0.2905   -6.6282    0.2929
  9.120   -6.5102    0.2563   -6.7614    0.1824   -6.4926    0.2358   -6.5296    0.1018   -6.5776    0.3010   -6.5828    0.3034
  9.130   -6.4592    0.2667   -6.7229    0.1858   -6.4398    0.2439   -6.4780    0.1027   -6.5310    0.3126   -6.5362    0.3150
  9.140   -6.4067    0.2780   -6.6839    0.1895   -6.3852    0.2529   -6.4246    0.1038   -6.4832    0.3253   -6.4884    0.3277
  9.150   -6.3524    0.2906   -6.6442    0.1934   -6.3286    0.2627   -6.3692    0.1050   -6.4342    0.3392   -6.4393    0.3416
  9.160   -6.2963    0.3045   -6.6039    0.1977   -6.2697    0.2737   -6.3116    0.1065   -6.3837    0.3546   -6.3888    0.3569
  9.170   -6.2381    0.3200   -6.5627    0.2023   -6.2083    0.2859   -6.2515    0.1083   -6.3317    0.3716   -6.3368    0.3739
  9.180   -6.1777    0.3372   -6.5208    0.2073   -6.1441    0.2994   -6.1885    0.1104   -6.2780    0.3904   -6.2832    0.3927
  9.190   -6.1148    0.3565   -6.4780    0.2127   -6.0767    0.3146   -6.1225    0.1129   -6.2226    0.4113   -6.2278    0.4136
  9.200   -6.0493    0.3782   -6.4342    0.2185   -6.0059    0.3316   -6.0530    0.1158   -6.1653    0.4345   -6.1704    0.4368
  9.210   -5.9808    0.4025   -6.3894    0.2248   -5.9311    0.3509   -5.9794    0.1193   -6.1059    0.4606   -6.1110    0.4629
  9.220   -5.9091    0.4300   -6.3435    0.2316   -5.8519    0.3726   -5.9012    0.1234   -6.0443    0.4898   -6.0494    0.4921
  9.230   -5.8338    0.4612   -6.2964    0.2390   -5.7676    0.3975   -5.8178    0.1283   -5.9803    0.5228   -5.9854    0.5250
  9.240   -5.7546    0.4967   -6.2480    0.2470   -5.6775    0.4259   -5.7284    0.1342   -5.9137    0.5600   -5.9189    0.5623
  9.250   -5.6713    0.5373   -6.1981    0.2556   -5.5809    0.4587   -5.6319    0.1414   -5.8445    0.6024   -5.8497    0.6046
  9.260   -5.5833    0.5840   -6.1467    0.2650   -5.4766    0.4967   -5.5272    0.1503   -5.7725    0.6507   -5.7777    0.6529
  9.270   -5.4905    0.6380   -6.0936    0.2752   -5.3635    0.5412   -5.4128    0.1613   -5.6978    0.7061   -5.7029    0.7083
  9.280   -5.3923    0.7006   -6.0387    0.2863   -5.2401    0.5937   -5.2870    0.1751   -5.6202    0.7700   -5.6254    0.7722
  9.290   -5.2887    0.7736   -5.9818    0.2983   -5.1047    0.6563   -5.1474    0.1926   -5.5401    0.8439   -5.5453    0.8460
  9.300   -5.1793    0.8591   -5.9227    0.3112   -4.9552    0.7317   -4.9913    0.2150   -5.4579    0.9298   -5.4632    0.9320
  9.310   -5.0642    0.9598   -5.8613    0.3250   -4.7887    0.8237   -4.8148    0.2443   -5.3744    1.0303   -5.3797    1.0324
  9.320   -4.9438    1.0788   -5.7974    0.3396   -4.6022    0.9375   -4.6132    0.2832   -5.2909    1.1481   -5.2962    1.1502
  9.330   -4.8187    1.2199   -5.7305    0.3548   -4.3917    1.0805   -4.3800    0.3358   -5.2097    1.2869   -5.2150    1.2890
  9.340   -4.6903    1.3878   -5.6604    0.3703   -4.1526    1.2638   -4.1067    0.4088   -5.1340    1.4508   -5.1394    1.4528
  9.350   -4.5607    1.5879   -5.5865    0.3854   -3.8797    1.5037   -3.7817    0.5128   -5.0692    1.6443   -5.0746    1.6463
  9.360   -4.4328    1.8268   -5.5078    0.3986   -3.5684    1.8258   -3.3898    0.6656   -5.0229    1.8727   -5.0283    1.8747
  9.370   -4.3101    2.1130   -5.4226    0.4078   -3.2172    2.2707   -2.9110    0.8986   -5.0065    2.1410   -5.0119    2.1430
  9.380   -4.1969    2.4591   -5.3272    0.4094   -2.8364    2.9048   -2.3224    1.2684   -5.0372    2.4538   -5.0427    2.4560
  9.390   -4.0997    2.8877   -5.2134    0.3976   -2.4721    3.8363   -1.6091    1.8809   -5.1414    2.8137   -5.1471    2.8159
  9.400   -4.0387    3.4445   -5.0624    0.3663   -2.2728    5.2279   -0.8094    2.9329   -5.3638    3.2150   -5.3697    3.2174
  9.410   -4.0944    4.2083   -4.8334    0.3198   -2.6507    7.2323   -0.1704    4.7386   -5.7801    3.6188   -5.7867    3.6214
  9.420   -4.5189    5.2133   -4.4628    0.3171   -4.4620    9.5562   -0.4939    7.4784   -6.4757    3.8730   -6.4834    3.8754
  9.430   -5.6717    6.0901   -3.9671    0.5237   -8.1890   10.5340   -2.9438   10.0967   -7.3253    3.6666   -7.3342    3.6676
  9.440   -7.2247    6.1000   -3.5838    1.0096  -11.7222    8.5928   -6.6421   10.3811   -7.8217    2.9883   -7.8304    2.9872
  9.450   -8.3122    5.3760   -3.4418    1.5564  -12.8993    5.5153   -9.0803    8.6816   -7.8072    2.3477   -7.8145    2.3453
  9.460   -8.8176    4.5561   -3.4169    2.0380  -12.4958    3.2073   -9.9595    6.8353   -7.5871    1.9717   -7.5930    1.9689
  9.470   -9.0059    3.8834   -3.4200    2.4924  -11.6382    1.8238  -10.0837    5.4935   -7.3467    1.7901   -7.3516    1.7874
  9.480   -9.0540    3.3640   -3.4462    2.9760  -10.7745    1.0399   -9.9633    4.6111   -7.1296    1.7292   -7.1337    1.7268
  9.490   -9.0437    2.9611   -3.5297    3.5224  -10.0137    0.6111   -9.8102    4.0377   -6.9452    1.7578   -6.9488    1.7557
  9.500   -9.0140    2.6412   -3.7260    4.1388   -9.3660    0.4040   -9.7048    3.6521   -6.8070    1.8641   -6.8100    1.8622
  9.510   -8.9847    2.3763   -4.1025    4.7964   -8.8259    0.3502   -9.6745    3.3635   -6.7390    2.0360   -6.7417    2.0344
  9.520   -8.9630    2.1416   -4.7181    5.4152   -8.3953    0.4098   -9.7171    3.0989   -6.7712    2.2464   -6.7734    2.2453
  9.530   -8.9452    1.9162   -5.5806    5.8645   -8.0852    0.5457   -9.8029    2.8018   -6.9224    2.4453   -6.9243    2.4446
  9.540   -8.9180    1.6891   -6.6024    6.0084   -7.9014    0.7109   -9.8787    2.4454   -7.1786    2.5689   -7.1803    2.5686
  9.550   -8.8665    1.4626   -7.6108    5.7890   -7.8282    0.8545   -9.8912    2.0442   -7.4847    2.5709   -7.4864    2.5710
  9.560   -8.7843    1.2493   -8.4348    5.2719   -7.8269    0.9423   -9.8145    1.6436   -7.7700    2.4501   -7.7717    2.4507
  9.570   -8.6766    1.0618   -8.9904    4.5998   -7.8536    0.9677   -9.6603    1.2869   -7.9848    2.2452   -7.9866    2.2460
  9.580   -8.5541    0.9058   -9.2901    3.9071   -7.8777    0.9447   -9.4590    0.9965   -8.1152    2.0048   -8.1171    2.0059
  9.590   -8.4275    0.7801   -9.3958    3.2757   -7.8852    0.8927   -9.2402    0.7733   -8.1721    1.7657   -8.1741    1.7670
  9.600   -8.3036    0.6799   -9.3748    2.7376   -7.8738    0.8276   -9.0241    0.6069   -8.1751    1.5475   -8.1773    1.5490
  9.610   -8.1860    0.6000   -9.2798    2.2948   -7.8464    0.7596   -8.8211    0.4844   -8.1426    1.3572   -8.1449    1.3588
  9.620   -8.0762    0.5357   -9.1463    1.9362   -7.8073    0.6943   -8.6353    0.3941   -8.0884    1.1950   -8.0908    1.1967
  9.630   -7.9743    0.4832   -8.9961    1.6472   -7.7602    0.6343   -8.4672    0.3272   -8.0220    1.0581   -8.0246    1.0598
  9.640   -7.8799    0.4398   -8.8419    1.4139   -7.7084    0.5802   -8.3158    0.2771   -7.9497    0.9428   -7.9524    0.9446
  9.650   -7.7924    0.4034   -8.6907    1.2246   -7.6539    0.5322   -8.1794    0.2390   -7.8751    0.8455   -7.8779    0.8473
  9.660   -7.7109    0.3724   -8.5461    1.0700   -7.5983    0.4897   -8.0559    0.2097   -7.8007    0.7630   -7.8036    0.7648
  9.670   -7.6349    0.3459   -8.4097    0.9427   -7.5426    0.4523   -7.9438    0.1868   -7.7277    0.6927   -7.7307    0.6945
  9.680   -7.5637    0.3229   -8.2819    0.8370   -7.4876    0.4193   -7.8415    0.1687   -7.6570    0.6324   -7.6599    0.6342
  9.690   -7.4967    0.3027   -8.1627    0.7485   -7.4335    0.3901   -7.7477    0.1543   -7.5888    0.5803   -7.5918    0.5821
  9.700   -7.4336    0.2849   -8.0516    0.6739   -7.3808    0.3642   -7.6611    0.1425   -7.5233    0.5352   -7.5263    0.5370
  9.710   -7.3739    0.2692   -7.9481    0.6105   -7.3295    0.3412   -7.5809    0.1329   -7.4605    0.4957   -7.4636    0.4975
  9.720   -7.3172    0.2551   -7.8514    0.5563   -7.2797    0.3206   -7.5062    0.1249   -7.4004    0.4611   -7.4036    0.4629
  9.730   -7.2632    0.2424   -7.7611    0.5096   -7.2313    0.3023   -7.4365    0.1182   -7.3429    0.4305   -7.3460    0.4323
  9.740   -7.2117    0.2310   -7.6765    0.4691   -7.1845    0.2858   -7.3710    0.1125   -7.2877    0.4034   -7.2909    0.4052
  9.750   -7.1624    0.2207   -7.5970    0.4337   -7.1391    0.2709   -7.3092    0.1077   -7.2348    0.3792   -7.2380    0.3810
  9.760   -7.1151    0.2113   -7.5222    0.4028   -7.0951    0.2575   -7.2509    0.1035   -7.1840    0.3576   -7.1872    0.3593
  9.770   -7.0697    0.2027   -7.4517    0.3755   -7.0524    0.2453   -7.1956    0.0999   -7.1352    0.3381   -7.1384    0.3398
  9.780   -7.0259    0.1948   -7.3850    0.3513   -7.0110    0.2342   -7.1430    0.0967   -7.0882    0.3205   -7.0914    0.3223
  9.790   -6.9838    0.1876   -7.3217    0.3298   -6.9708    0.2241   -7.0928    0.0939   -7.0429    0.3046   -7.0461    0.3063
  9.800   -6.9430    0.1809   -7.2616    0.3106   -6.9317    0.2148   -7.0448    0.0914   -6.9991    0.2902   -7.0023    0.2919
  9.810   -6.9036    0.1747   -7.2044    0.2934   -6.8937    0.2064   -6.9988    0.0892   -6.9569    0.2770   -6.9601    0.2787
  9.820   -6.8653    0.1690   -7.1498    0.2779   -6.8567    0.1986   -6.9546    0.0872   -6.9160    0.2649   -6.9192    0.2666
  9.830   -6.8283    0.1637   -7.0977    0.2639   -6.8207    0.1914   -6.9121    0.0854   -6.8764    0.2539   -6.8796    0.2556
  9.840   -6.7922    0.1588   -7.0477    0.2512   -6.7856    0.1847   -6.8711    0.0838   -6.8380    0.2437   -6.8412    0.2454
  9.850   -6.7571    0.1542   -6.9997    0.2397   -6.7513    0.1786   -6.8315    0.0823   -6.8006    0.2343   -6.8039    0.2360
  9.860   -6.7230    0.1499   -6.9536    0.2291   -6.7178    0.1728   -6.7932    0.0810   -6.7644    0.2257   -6.7676    0.2273
  9.870   -6.6897    0.1458   -6.9091    0.2195   -6.6852    0.1675   -6.7560    0.0797   -6.7291    0.2177   -6.7323    0.2193
  9.880   -6.6572    0.1421   -6.8663    0.2107   -6.6532    0.1626   -6.7200    0.0786   -6.6947    0.2102   -6.6979    0.2118
  9.890   -6.6255    0.1385   -6.8249    0.2025   -6.6219    0.1580   -6.6850    0.0775   -6.6612    0.2033   -6.6644    0.2049
  9.900   -6.5944    0.1352   -6.7849    0.1951   -6.5913    0.1536   -6.6509    0.0765   -6.6285    0.1968   -6.6317    0.1984
  9.910   -6.5641    0.1320   -6.7461    0.1881   -6.5613    0.1496   -6.6178    0.0756   -6.5965    0.1908   -6.5997    0.1924
  9.920   -6.5343    0.1290   -6.7085    0.1817   -6.5319    0.1458   -6.5854    0.0747   -6.5653    0.1852   -6.5685    0.1868
  9.930   -6.5052    0.1262   -6.6720    0.1758   -6.5030    0.1422   -6.5539    0.0738   -6.5347    0.1799   -6.5379    0.1815
  9.940   -6.4766    0.1236   -6.6365    0.1703   -6.4747    0.1388   -6.5230    0.0731   -6.5048    0.1749   -6.5080    0.1765
  9.950   -6.4485    0.1210   -6.6020    0.1651   -6.4469    0.1357   -6.4929    0.0723   -6.4755    0.1703   -6.4787    0.1718
  9.960   -6.4210    0.1186   -6.5684    0.1603   -6.4195    0.1327   -6.4634    0.0716   -6.4467    0.1659   -6.4499    0.1674
  9.970   -6.3939    0.1164   -6.5356    0.1558   -6.3927    0.1298   -6.4345    0.0710   -6.4185    0.1617   -6.4217    0.1633
  9.980   -6.3673    0.1142   -6.5035    0.1516   -6.3662    0.1271   -6.4061    0.0703   -6.3908    0.1578   -6.3940    0.1594
  9.990   -6.3411    0.1121   -6.4723    0.1476   -6.3402    0.1246   -6.3784    0.0697   -6.3636    0.1541   -6.3668    0.1557
 10.000   -6.3154    0.1102   -6.4417    0.1439   -6.3146    0.1222   -6.3511    0.0691   -6.3369    0.1506   -6.3401    0.1522
