# Macroscopic dielectric function obtained with the BS equation.
#  RPA L0 with KS energies and KS wavefunctions     LOCAL FIELD EFFECTS INCLUDED
# RESONANT-ONLY calculation
# Coulomb term constructed with full W(G1,G2)
# Scissor operator energy =  0.8000 [eV]
# Tolerance = -0.0010 0.0000
# npweps  = 113
# npwwfn  = 259
# nbands  = 8
# loband  = 2
# nkibz   = 3
# nkbz    = 8
# Lorentzian broadening =  0.0001 [eV]
# List of q-points for the optical limit:
# q =  0.938821, 0.000000, 0.000000, [Reduced coords] 
# q =  0.000000, 0.938821, 0.000000, [Reduced coords] 
# q =  0.000000, 0.000000, 0.938821, [Reduced coords] 
# q =  0.000000, 0.813043, 0.813043, [Reduced coords] 
# q =  0.813043, 0.000000, 0.813043, [Reduced coords] 
# q =  0.813043, 0.813043, 0.000000, [Reduced coords] 
# omega [eV]    RE(eps(q=1)) IM(eps(q=1) RE(eps(q=2) ) ... 
  0.000   57.6238    0.0000   57.4703    0.0000   57.4848    0.0000   57.5568    0.0000   57.7073    0.0000   57.7102    0.0000
  0.010   57.6244    0.0215   57.4709    0.0229   57.4854    0.0228   57.5574    0.0215   57.7079    0.0231   57.7108    0.0232
  0.020   57.6263    0.0430   57.4727    0.0457   57.4872    0.0457   57.5593    0.0430   57.7097    0.0462   57.7127    0.0463
  0.030   57.6294    0.0646   57.4758    0.0686   57.4903    0.0685   57.5624    0.0645   57.7128    0.0694   57.7158    0.0695
  0.040   57.6337    0.0861   57.4801    0.0915   57.4946    0.0914   57.5667    0.0860   57.7172    0.0925   57.7201    0.0927
  0.050   57.6393    0.1077   57.4856    0.1144   57.5001    0.1143   57.5723    0.1075   57.7228    0.1156   57.7257    0.1158
  0.060   57.6461    0.1292   57.4924    0.1373   57.5069    0.1372   57.5791    0.1291   57.7296    0.1388   57.7325    0.1390
  0.070   57.6542    0.1508   57.5004    0.1602   57.5149    0.1601   57.5871    0.1506   57.7377    0.1620   57.7406    0.1623
  0.080   57.6634    0.1724   57.5096    0.1832   57.5241    0.1830   57.5964    0.1722   57.7470    0.1852   57.7499    0.1855
  0.090   57.6740    0.1940   57.5200    0.2062   57.5346    0.2059   57.6069    0.1938   57.7576    0.2084   57.7605    0.2088
  0.100   57.6858    0.2157   57.5317    0.2292   57.5462    0.2289   57.6187    0.2154   57.7694    0.2316   57.7723    0.2321
  0.110   57.6988    0.2374   57.5446    0.2522   57.5592    0.2519   57.6317    0.2370   57.7825    0.2549   57.7854    0.2554
  0.120   57.7131    0.2591   57.5588    0.2753   57.5733    0.2750   57.6459    0.2587   57.7968    0.2782   57.7997    0.2787
  0.130   57.7286    0.2808   57.5742    0.2984   57.5887    0.2980   57.6614    0.2804   57.8123    0.3016   57.8153    0.3021
  0.140   57.7454    0.3026   57.5908    0.3215   57.6054    0.3212   57.6782    0.3022   57.8292    0.3250   57.8321    0.3256
  0.150   57.7634    0.3244   57.6087    0.3447   57.6232    0.3443   57.6962    0.3240   57.8473    0.3484   57.8502    0.3490
  0.160   57.7827    0.3463   57.6278    0.3679   57.6424    0.3675   57.7154    0.3458   57.8666    0.3719   57.8695    0.3726
  0.170   57.8032    0.3682   57.6482    0.3912   57.6627    0.3908   57.7360    0.3677   57.8872    0.3954   57.8901    0.3961
  0.180   57.8250    0.3902   57.6698    0.4145   57.6844    0.4141   57.7577    0.3897   57.9091    0.4190   57.9120    0.4198
  0.190   57.8481    0.4122   57.6927    0.4379   57.7073    0.4374   57.7808    0.4116   57.9322    0.4427   57.9352    0.4435
  0.200   57.8724    0.4343   57.7168    0.4614   57.7314    0.4609   57.8051    0.4337   57.9566    0.4664   57.9596    0.4672
  0.210   57.8980    0.4564   57.7422    0.4849   57.7568    0.4843   57.8307    0.4558   57.9823    0.4901   57.9853    0.4910
  0.220   57.9249    0.4786   57.7689    0.5084   57.7835    0.5079   57.8575    0.4779   58.0093    0.5140   58.0122    0.5149
  0.230   57.9531    0.5008   57.7968    0.5321   57.8114    0.5315   57.8856    0.5002   58.0376    0.5379   58.0405    0.5388
  0.240   57.9825    0.5232   57.8260    0.5558   57.8406    0.5552   57.9150    0.5225   58.0671    0.5618   58.0700    0.5628
  0.250   58.0132    0.5456   57.8565    0.5795   57.8711    0.5789   57.9457    0.5448   58.0979    0.5859   58.1009    0.5869
  0.260   58.0453    0.5680   57.8882    0.6034   57.9029    0.6028   57.9777    0.5673   58.1300    0.6100   58.1330    0.6111
  0.270   58.0786    0.5906   57.9213    0.6273   57.9359    0.6267   58.0110    0.5898   58.1635    0.6342   58.1664    0.6353
  0.280   58.1132    0.6132   57.9556    0.6514   57.9703    0.6507   58.0456    0.6124   58.1982    0.6585   58.2011    0.6597
  0.290   58.1491    0.6359   57.9912    0.6755   58.0059    0.6747   58.0814    0.6351   58.2342    0.6829   58.2372    0.6841
  0.300   58.1863    0.6587   58.0281    0.6997   58.0428    0.6989   58.1186    0.6579   58.2716    0.7074   58.2745    0.7086
  0.310   58.2249    0.6816   58.0664    0.7240   58.0810    0.7232   58.1571    0.6807   58.3102    0.7319   58.3132    0.7332
  0.320   58.2647    0.7046   58.1059    0.7484   58.1206    0.7476   58.1969    0.7037   58.3502    0.7566   58.3532    0.7579
  0.330   58.3059    0.7276   58.1467    0.7729   58.1614    0.7720   58.2381    0.7267   58.3915    0.7814   58.3945    0.7827
  0.340   58.3484    0.7508   58.1889    0.7975   58.2036    0.7966   58.2805    0.7499   58.4342    0.8063   58.4371    0.8077
  0.350   58.3923    0.7741   58.2324    0.8222   58.2471    0.8213   58.3243    0.7731   58.4782    0.8313   58.4811    0.8327
  0.360   58.4375    0.7975   58.2772    0.8470   58.2919    0.8461   58.3695    0.7965   58.5235    0.8564   58.5265    0.8579
  0.370   58.4840    0.8210   58.3233    0.8719   58.3381    0.8710   58.4159    0.8200   58.5702    0.8816   58.5732    0.8831
  0.380   58.5319    0.8446   58.3708    0.8970   58.3856    0.8960   58.4638    0.8436   58.6183    0.9070   58.6212    0.9085
  0.390   58.5812    0.8684   58.4197    0.9222   58.4345    0.9212   58.5130    0.8673   58.6677    0.9324   58.6706    0.9340
  0.400   58.6318    0.8922   58.4699    0.9475   58.4847    0.9465   58.5636    0.8911   58.7185    0.9580   58.7214    0.9597
  0.410   58.6838    0.9162   58.5215    0.9729   58.5363    0.9719   58.6155    0.9151   58.7707    0.9838   58.7736    0.9855
  0.420   58.7372    0.9403   58.5744    0.9985   58.5893    0.9974   58.6688    0.9392   58.8242    1.0097   58.8272    1.0114
  0.430   58.7920    0.9645   58.6287    1.0242   58.6436    1.0231   58.7236    0.9634   58.8792    1.0357   58.8822    1.0374
  0.440   58.8482    0.9889   58.6845    1.0500   58.6993    1.0489   58.7797    0.9877   58.9355    1.0618   58.9385    1.0636
  0.450   58.9058    1.0134   58.7416    1.0761   58.7564    1.0749   58.8372    1.0122   58.9933    1.0882   58.9963    1.0900
  0.460   58.9648    1.0381   58.8001    1.1022   58.8150    1.1010   58.8961    1.0369   59.0525    1.1146   59.0555    1.1165
  0.470   59.0253    1.0629   58.8600    1.1285   58.8749    1.1273   58.9565    1.0617   59.1132    1.1412   59.1161    1.1432
  0.480   59.0871    1.0879   58.9213    1.1550   58.9363    1.1538   59.0183    1.0866   59.1752    1.1680   59.1782    1.1700
  0.490   59.1504    1.1130   58.9841    1.1816   58.9991    1.1804   59.0815    1.1117   59.2387    1.1950   59.2417    1.1970
  0.500   59.2152    1.1383   59.0483    1.2084   59.0633    1.2071   59.1462    1.1370   59.3037    1.2221   59.3067    1.2242
  0.510   59.2814    1.1637   59.1140    1.2354   59.1290    1.2341   59.2124    1.1624   59.3701    1.2494   59.3731    1.2515
  0.520   59.3491    1.1894   59.1811    1.2625   59.1961    1.2612   59.2800    1.1880   59.4380    1.2769   59.4411    1.2790
  0.530   59.4183    1.2152   59.2497    1.2899   59.2647    1.2885   59.3491    1.2138   59.5074    1.3046   59.5105    1.3068
  0.540   59.4889    1.2411   59.3197    1.3174   59.3348    1.3160   59.4196    1.2397   59.5783    1.3324   59.5813    1.3347
  0.550   59.5611    1.2673   59.3913    1.3451   59.4063    1.3437   59.4917    1.2659   59.6507    1.3605   59.6537    1.3628
  0.560   59.6348    1.2936   59.4643    1.3730   59.4794    1.3716   59.5653    1.2922   59.7246    1.3888   59.7277    1.3911
  0.570   59.7100    1.3201   59.5389    1.4011   59.5540    1.3996   59.6404    1.3187   59.8001    1.4172   59.8031    1.4196
  0.580   59.7867    1.3469   59.6149    1.4294   59.6301    1.4279   59.7171    1.3454   59.8771    1.4459   59.8801    1.4483
  0.590   59.8650    1.3738   59.6925    1.4579   59.7077    1.4564   59.7953    1.3723   59.9556    1.4748   59.9586    1.4772
  0.600   59.9448    1.4009   59.7717    1.4866   59.7869    1.4851   59.8750    1.3994   60.0357    1.5039   60.0387    1.5063
  0.610   60.0263    1.4283   59.8524    1.5156   59.8676    1.5140   59.9563    1.4268   60.1174    1.5332   60.1204    1.5357
  0.620   60.1092    1.4559   59.9346    1.5448   59.9499    1.5432   60.0392    1.4543   60.2006    1.5628   60.2037    1.5653
  0.630   60.1938    1.4836   60.0185    1.5742   60.0337    1.5726   60.1237    1.4821   60.2855    1.5926   60.2885    1.5951
  0.640   60.2800    1.5116   60.1039    1.6038   60.1192    1.6022   60.2098    1.5101   60.3719    1.6226   60.3750    1.6252
  0.650   60.3678    1.5399   60.1910    1.6337   60.2063    1.6320   60.2975    1.5383   60.4600    1.6529   60.4631    1.6555
  0.660   60.4573    1.5684   60.2796    1.6638   60.2950    1.6622   60.3869    1.5668   60.5498    1.6834   60.5529    1.6861
  0.670   60.5484    1.5971   60.3699    1.6942   60.3853    1.6925   60.4779    1.5955   60.6412    1.7142   60.6443    1.7170
  0.680   60.6411    1.6261   60.4619    1.7249   60.4772    1.7231   60.5705    1.6245   60.7342    1.7453   60.7373    1.7481
  0.690   60.7356    1.6553   60.5555    1.7558   60.5709    1.7540   60.6648    1.6537   60.8290    1.7766   60.8321    1.7794
  0.700   60.8317    1.6848   60.6508    1.7869   60.6662    1.7852   60.7609    1.6831   60.9254    1.8082   60.9285    1.8111
  0.710   60.9295    1.7145   60.7477    1.8184   60.7632    1.8166   60.8586    1.7129   61.0236    1.8401   61.0267    1.8430
  0.720   61.0291    1.7445   60.8464    1.8501   60.8619    1.8483   60.9580    1.7429   61.1235    1.8723   61.1266    1.8752
  0.730   61.1304    1.7749   60.9468    1.8822   60.9623    1.8803   61.0592    1.7732   61.2251    1.9048   61.2282    1.9078
  0.740   61.2335    1.8054   61.0489    1.9145   61.0645    1.9126   61.1622    1.8038   61.3285    1.9376   61.3316    1.9406
  0.750   61.3383    1.8363   61.1528    1.9471   61.1684    1.9452   61.2669    1.8346   61.4336    1.9707   61.4368    1.9737
  0.760   61.4449    1.8675   61.2585    1.9801   61.2741    1.9781   61.3734    1.8658   61.5406    2.0041   61.5437    2.0072
  0.770   61.5533    1.8990   61.3659    2.0133   61.3816    2.0114   61.4817    1.8973   61.6494    2.0378   61.6525    2.0409
  0.780   61.6636    1.9307   61.4752    2.0469   61.4908    2.0449   61.5918    1.9291   61.7600    2.0719   61.7631    2.0750
  0.790   61.7757    1.9629   61.5863    2.0808   61.6020    2.0788   61.7038    1.9612   61.8724    2.1063   61.8756    2.1095
  0.800   61.8896    1.9953   61.6992    2.1151   61.7149    2.1130   61.8176    1.9936   61.9868    2.1410   61.9899    2.1443
  0.810   62.0055    2.0280   61.8140    2.1496   61.8297    2.1476   61.9333    2.0264   62.1030    2.1761   62.1062    2.1794
  0.820   62.1232    2.0611   61.9306    2.1846   61.9464    2.1825   62.0509    2.0595   62.2211    2.2116   62.2243    2.2149
  0.830   62.2428    2.0946   62.0492    2.2199   62.0650    2.2178   62.1705    2.0929   62.3411    2.2474   62.3443    2.2508
  0.840   62.3644    2.1284   62.1696    2.2556   62.1855    2.2534   62.2919    2.1267   62.4631    2.2836   62.4663    2.2870
  0.850   62.4880    2.1626   62.2921    2.2916   62.3080    2.2895   62.4153    2.1609   62.5871    2.3202   62.5903    2.3237
  0.860   62.6135    2.1971   62.4164    2.3281   62.4324    2.3259   62.5407    2.1954   62.7130    2.3572   62.7162    2.3607
  0.870   62.7411    2.2320   62.5428    2.3649   62.5588    2.3627   62.6681    2.2304   62.8410    2.3946   62.8442    2.3982
  0.880   62.8706    2.2673   62.6712    2.4021   62.6872    2.3999   62.7976    2.2657   62.9709    2.4324   62.9742    2.4360
  0.890   63.0022    2.3030   62.8015    2.4398   62.8176    2.4375   62.9291    2.3014   63.1030    2.4707   63.1062    2.4743
  0.900   63.1359    2.3391   62.9340    2.4779   62.9501    2.4756   63.0626    2.3375   63.2371    2.5093   63.2404    2.5130
  0.910   63.2717    2.3756   63.0685    2.5164   63.0846    2.5140   63.1982    2.3740   63.3733    2.5484   63.3766    2.5521
  0.920   63.4096    2.4126   63.2051    2.5553   63.2212    2.5530   63.3360    2.4110   63.5117    2.5880   63.5150    2.5917
  0.930   63.5496    2.4500   63.3438    2.5947   63.3600    2.5923   63.4759    2.4484   63.6522    2.6280   63.6555    2.6318
  0.940   63.6918    2.4878   63.4847    2.6345   63.5009    2.6321   63.6180    2.4862   63.7948    2.6685   63.7982    2.6723
  0.950   63.8362    2.5260   63.6277    2.6749   63.6440    2.6724   63.7622    2.5245   63.9397    2.7095   63.9430    2.7133
  0.960   63.9829    2.5648   63.7730    2.7156   63.7893    2.7132   63.9087    2.5632   64.0868    2.7509   64.0902    2.7548
  0.970   64.1317    2.6040   63.9204    2.7569   63.9368    2.7545   64.0574    2.6025   64.2362    2.7929   64.2395    2.7968
  0.980   64.2829    2.6436   64.0701    2.7987   64.0865    2.7962   64.2084    2.6422   64.3878    2.8354   64.3912    2.8393
  0.990   64.4363    2.6838   64.2221    2.8410   64.2385    2.8385   64.3618    2.6824   64.5418    2.8784   64.5452    2.8823
  1.000   64.5921    2.7245   64.3764    2.8839   64.3929    2.8813   64.5174    2.7231   64.6981    2.9219   64.7015    2.9259
  1.010   64.7503    2.7657   64.5330    2.9272   64.5495    2.9246   64.6754    2.7643   64.8567    2.9660   64.8602    2.9701
  1.020   64.9108    2.8074   64.6920    2.9711   64.7086    2.9685   64.8358    2.8061   65.0178    3.0106   65.0213    3.0147
  1.030   65.0738    2.8497   64.8534    3.0156   64.8700    3.0130   64.9986    2.8484   65.1813    3.0559   65.1848    3.0600
  1.040   65.2392    2.8925   65.0172    3.0606   65.0338    3.0580   65.1639    2.8912   65.3473    3.1017   65.3507    3.1059
  1.050   65.4071    2.9359   65.1835    3.1063   65.2002    3.1036   65.3316    2.9346   65.5157    3.1481   65.5192    3.1523
  1.060   65.5775    2.9798   65.3522    3.1525   65.3690    3.1498   65.5019    2.9786   65.6867    3.1951   65.6902    3.1994
  1.070   65.7505    3.0244   65.5235    3.1993   65.5403    3.1966   65.6747    3.0232   65.8603    3.2428   65.8638    3.2471
  1.080   65.9261    3.0695   65.6973    3.2468   65.7142    3.2440   65.8501    3.0684   66.0364    3.2911   66.0400    3.2954
  1.090   66.1043    3.1153   65.8738    3.2949   65.8906    3.2921   66.0282    3.1142   66.2152    3.3400   66.2187    3.3444
  1.100   66.2851    3.1617   66.0528    3.3437   66.0697    3.3409   66.2089    3.1607   66.3966    3.3897   66.4002    3.3941
  1.110   66.4687    3.2088   66.2345    3.3931   66.2515    3.3903   66.3923    3.2078   66.5808    3.4400   66.5844    3.4444
  1.120   66.6549    3.2565   66.4190    3.4432   66.4360    3.4404   66.5784    3.2556   66.7677    3.4910   66.7713    3.4955
  1.130   66.8440    3.3049   66.6061    3.4940   66.6232    3.4912   66.7673    3.3040   66.9573    3.5428   66.9610    3.5473
  1.140   67.0358    3.3539   66.7960    3.5456   66.8131    3.5427   66.9590    3.3531   67.1498    3.5953   67.1535    3.5998
  1.150   67.2306    3.4037   66.9888    3.5979   67.0059    3.5949   67.1535    3.4030   67.3452    3.6485   67.3489    3.6531
  1.160   67.4282    3.4542   67.1844    3.6509   67.2016    3.6479   67.3510    3.4536   67.5434    3.7025   67.5472    3.7071
  1.170   67.6287    3.5055   67.3829    3.7047   67.4001    3.7017   67.5514    3.5049   67.7446    3.7573   67.7484    3.7620
  1.180   67.8322    3.5575   67.5843    3.7593   67.6016    3.7563   67.7547    3.5570   67.9488    3.8129   67.9526    3.8176
  1.190   68.0388    3.6103   67.7887    3.8147   67.8061    3.8116   67.9611    3.6099   68.1561    3.8694   68.1598    3.8741
  1.200   68.2484    3.6639   67.9961    3.8709   68.0136    3.8678   68.1705    3.6636   68.3664    3.9267   68.3702    3.9314
  1.210   68.4611    3.7183   68.2067    3.9279   68.2241    3.9248   68.3831    3.7181   68.5798    3.9848   68.5836    3.9896
  1.220   68.6770    3.7736   68.4203    3.9859   68.4378    3.9827   68.5988    3.7734   68.7964    4.0439   68.8002    4.0487
  1.230   68.8961    3.8297   68.6371    4.0447   68.6547    4.0415   68.8178    3.8296   69.0162    4.1039   69.0201    4.1087
  1.240   69.1184    3.8867   68.8571    4.1044   68.8747    4.1012   69.0400    3.8867   69.2393    4.1648   69.2432    4.1696
  1.250   69.3441    3.9446   69.0804    4.1651   69.0981    4.1619   69.2655    3.9447   69.4657    4.2266   69.4696    4.2315
  1.260   69.5731    4.0034   69.3070    4.2267   69.3247    4.2234   69.4943    4.0036   69.6955    4.2894   69.6994    4.2943
  1.270   69.8056    4.0631   69.5370    4.2892   69.5548    4.2860   69.7266    4.0635   69.9287    4.3533   69.9327    4.3582
  1.280   70.0415    4.1238   69.7703    4.3528   69.7882    4.3495   69.9624    4.1243   70.1654    4.4181   70.1694    4.4231
  1.290   70.2809    4.1855   70.0072    4.4174   70.0251    4.4141   70.2016    4.1861   70.4056    4.4841   70.4097    4.4891
  1.300   70.5239    4.2482   70.2476    4.4831   70.2656    4.4797   70.4445    4.2490   70.6494    4.5511   70.6535    4.5561
  1.310   70.7706    4.3120   70.4916    4.5498   70.5096    4.5464   70.6910    4.3129   70.8969    4.6192   70.9010    4.6242
  1.320   71.0210    4.3768   70.7392    4.6176   70.7573    4.6143   70.9412    4.3778   71.1481    4.6884   71.1523    4.6935
  1.330   71.2751    4.4428   70.9906    4.6866   71.0087    4.6832   71.1952    4.4439   71.4030    4.7588   71.4073    4.7639
  1.340   71.5330    4.5098   71.2457    4.7567   71.2639    4.7533   71.4530    4.5111   71.6618    4.8304   71.6661    4.8356
  1.350   71.7949    4.5780   71.5047    4.8280   71.5229    4.8246   71.7147    4.5795   71.9245    4.9032   71.9288    4.9084
  1.360   72.0607    4.6474   71.7675    4.9005   71.7858    4.8971   71.9803    4.6490   72.1912    4.9773   72.1956    4.9825
  1.370   72.3305    4.7180   72.0343    4.9743   72.0527    4.9708   72.2500    4.7198   72.4619    5.0527   72.4663    5.0579
  1.380   72.6044    4.7898   72.3052    5.0494   72.3236    5.0459   72.5238    4.7918   72.7368    5.1294   72.7412    5.1346
  1.390   72.8825    4.8629   72.5801    5.1257   72.5987    5.1222   72.8017    4.8651   73.0158    5.2074   73.0202    5.2127
  1.400   73.1649    4.9373   72.8593    5.2035   72.8779    5.1999   73.0839    4.9397   73.2990    5.2869   73.3035    5.2921
  1.410   73.4515    5.0131   73.1427    5.2826   73.1613    5.2790   73.3704    5.0156   73.5866    5.3677   73.5912    5.3730
  1.420   73.7426    5.0902   73.4304    5.3631   73.4491    5.3595   73.6613    5.0930   73.8786    5.4501   73.8832    5.4554
  1.430   74.0381    5.1688   73.7225    5.4451   73.7413    5.4415   73.9567    5.1718   74.1751    5.5339   74.1798    5.5393
  1.440   74.3382    5.2488   74.0191    5.5286   74.0380    5.5249   74.2566    5.2520   74.4761    5.6193   74.4809    5.6247
  1.450   74.6429    5.3303   74.3203    5.6136   74.3392    5.6099   74.5612    5.3337   74.7818    5.7063   74.7866    5.7116
  1.460   74.9523    5.4133   74.6261    5.7002   74.6451    5.6965   74.8705    5.4170   75.0923    5.7949   75.0971    5.8003
  1.470   75.2665    5.4979   74.9366    5.7884   74.9557    5.7847   75.1846    5.5019   75.4075    5.8852   75.4124    5.8906
  1.480   75.5857    5.5841   75.2520    5.8783   75.2711    5.8746   75.5036    5.5884   75.7277    5.9772   75.7327    5.9826
  1.490   75.9098    5.6720   75.5723    5.9699   75.5915    5.9662   75.8276    5.6765   76.0529    6.0709   76.0579    6.0764
  1.500   76.2390    5.7616   75.8976    6.0633   75.9168    6.0595   76.1567    5.7664   76.3832    6.1665   76.3883    6.1720
  1.510   76.5734    5.8530   76.2280    6.1585   76.2473    6.1547   76.4910    5.8581   76.7187    6.2640   76.7238    6.2695
  1.520   76.9131    5.9462   76.5635    6.2555   76.5830    6.2517   76.8306    5.9516   77.0595    6.3634   77.0647    6.3688
  1.530   77.2582    6.0412   76.9044    6.3545   76.9239    6.3506   77.1756    6.0469   77.4057    6.4647   77.4109    6.4702
  1.540   77.6088    6.1382   77.2507    6.4554   77.2703    6.4515   77.5261    6.1442   77.7574    6.5681   77.7627    6.5736
  1.550   77.9650    6.2371   77.6025    6.5584   77.6222    6.5545   77.8822    6.2435   78.1147    6.6736   78.1201    6.6791
  1.560   78.3269    6.3380   77.9600    6.6634   77.9797    6.6595   78.2440    6.3448   78.4778    6.7813   78.4832    6.7868
  1.570   78.6946    6.4410   78.3231    6.7706   78.3429    6.7666   78.6116    6.4482   78.8467    6.8911   78.8522    6.8966
  1.580   79.0683    6.5462   78.6921    6.8799   78.7120    6.8760   78.9852    6.5538   79.2215    7.0032   79.2272    7.0088
  1.590   79.4481    6.6536   79.0671    6.9916   79.0870    6.9876   79.3649    6.6616   79.6025    7.1177   79.6082    7.1233
  1.600   79.8340    6.7633   79.4481    7.1055   79.4681    7.1015   79.7508    6.7717   79.9897    7.2346   79.9955    7.2402
  1.610   80.2263    6.8753   79.8354    7.2219   79.8555    7.2179   80.1430    6.8841   80.3832    7.3540   80.3891    7.3595
  1.620   80.6250    6.9897   80.2290    7.3408   80.2492    7.3367   80.5417    6.9990   80.7832    7.4760   80.7891    7.4815
  1.630   81.0304    7.1066   80.6291    7.4622   80.6493    7.4581   80.9469    7.1164   81.1898    7.6006   81.1958    7.6061
  1.640   81.4424    7.2261   81.0358    7.5862   81.0561    7.5822   81.3590    7.2363   81.6031    7.7279   81.6093    7.7334
  1.650   81.8614    7.3482   81.4492    7.7130   81.4697    7.7089   81.7779    7.3590   82.0234    7.8580   82.0296    7.8636
  1.660   82.2874    7.4730   81.8696    7.8425   81.8901    7.8384   82.2038    7.4844   82.4506    7.9911   82.4570    7.9966
  1.670   82.7205    7.6007   82.2970    7.9750   82.3176    7.9708   82.6370    7.6126   82.8851    8.1271   82.8916    8.1326
  1.680   83.1610    7.7312   82.7316    8.1104   82.7522    8.1062   83.0774    7.7437   83.3270    8.2662   83.3336    8.2717
  1.690   83.6090    7.8648   83.1736    8.2488   83.1943    8.2447   83.5254    7.8779   83.7763    8.4085   83.7830    8.4139
  1.700   84.0647    8.0014   83.6230    8.3905   83.6438    8.3863   83.9811    8.0151   84.2334    8.5540   84.2402    8.5595
  1.710   84.5282    8.1412   84.0802    8.5353   84.1011    8.5311   84.4446    8.1556   84.6983    8.7030   84.7052    8.7084
  1.720   84.9997    8.2843   84.5452    8.6836   84.5662    8.6794   84.9162    8.2994   85.1712    8.8554   85.1783    8.8608
  1.730   85.4794    8.4309   85.0183    8.8353   85.0394    8.8311   85.3960    8.4467   85.6524    9.0115   85.6596    9.0169
  1.740   85.9675    8.5809   85.4996    8.9907   85.5208    8.9864   85.8841    8.5974   86.1419    9.1712   86.1493    9.1766
  1.750   86.4642    8.7345   85.9893    9.1497   86.0106    9.1454   86.3809    8.7519   86.6401    9.3349   86.6476    9.3402
  1.760   86.9697    8.8920   86.4877    9.3126   86.5090    9.3083   86.8865    8.9101   87.1470    9.5025   87.1547    9.5078
  1.770   87.4842    9.0533   86.9948    9.4794   87.0162    9.4751   87.4011    9.0722   87.6630    9.6742   87.6708    9.6795
  1.780   88.0079    9.2186   87.5110    9.6503   87.5325    9.6460   87.9249    9.2384   88.1882    9.8502   88.1962    9.8555
  1.790   88.5410    9.3880   88.0364    9.8255   88.0580    9.8212   88.4581    9.4088   88.7229   10.0306   88.7310   10.0358
  1.800   89.0838    9.5617   88.5712   10.0050   88.5929   10.0007   89.0011    9.5835   89.2672   10.2156   89.2755   10.2208
  1.810   89.6365    9.7399   89.1158   10.1891   89.1375   10.1848   89.5539    9.7626   89.8214   10.4053   89.8299   10.4104
  1.820   90.1993    9.9227   89.6702   10.3779   89.6921   10.3735   90.1169    9.9465   90.3858   10.5998   90.3944   10.6049
  1.830   90.7726   10.1103   90.2349   10.5715   90.2568   10.5672   90.6903   10.1351   90.9606   10.7994   90.9694   10.8045
  1.840   91.3564   10.3028   90.8099   10.7702   90.8319   10.7658   91.2744   10.3287   91.5460   11.0043   91.5550   11.0093
  1.850   91.9512   10.5004   91.3957   10.9740   91.4178   10.9697   91.8695   10.5275   92.1424   11.2146   92.1516   11.2195
  1.860   92.5572   10.7033   91.9923   11.1833   92.0145   11.1789   92.4757   10.7316   92.7500   11.4305   92.7594   11.4354
  1.870   93.1747   10.9117   92.6003   11.3982   92.6225   11.3938   93.0935   10.9413   93.3691   11.6522   93.3787   11.6570
  1.880   93.8039   11.1258   93.2197   11.6189   93.2421   11.6145   93.7230   11.1568   93.9999   11.8800   94.0098   11.8848
  1.890   94.4453   11.3458   93.8509   11.8455   93.8734   11.8411   94.3647   11.3782   94.6429   12.1141   94.6530   12.1188
  1.900   95.0990   11.5720   94.4943   12.0785   94.5168   12.0741   95.0188   11.6058   95.2982   12.3547   95.3086   12.3593
  1.910   95.7655   11.8045   95.1501   12.3179   95.1727   12.3135   95.6857   11.8398   95.9664   12.6020   95.9770   12.6066
  1.920   96.4451   12.0437   95.8187   12.5640   95.8414   12.5596   96.3656   12.0806   96.6475   12.8564   96.6584   12.8608
  1.930   97.1381   12.2897   96.5003   12.8172   96.5232   12.8128   97.0591   12.3283   97.3422   13.1181   97.3533   13.1224
  1.940   97.8449   12.5429   97.1955   13.0776   97.2184   13.0731   97.7663   12.5832   98.0506   13.3873   98.0620   13.3916
  1.950   98.5659   12.8035   97.9045   13.3455   97.9275   13.3411   98.4878   12.8456   98.7732   13.6645   98.7849   13.6686
  1.960   99.3014   13.0719   98.6277   13.6213   98.6507   13.6169   99.2239   13.1159   99.5103   13.9498   99.5224   13.9539
  1.970  100.0520   13.3483   99.3655   13.9052   99.3886   13.9008   99.9750   13.3943  100.2624   14.2437  100.2748   14.2477
  1.980  100.8179   13.6330  100.1183   14.1976  100.1415   14.1932  100.7415   13.6811  101.0299   14.5464  101.0426   14.5503
  1.990  101.5996   13.9265  100.8865   14.4989  100.9098   14.4945  101.5239   13.9768  101.8132   14.8584  101.8263   14.8622
  2.000  102.3977   14.2291  101.6706   14.8094  101.6940   14.8050  102.3226   14.2816  102.6127   15.1801  102.6262   15.1837
  2.010  103.2125   14.5411  102.4710   15.1294  102.4945   15.1250  103.1381   14.5961  103.4290   15.5117  103.4429   15.5153
  2.020  104.0445   14.8630  103.2882   15.4595  103.3118   15.4551  103.9709   14.9205  104.2626   15.8539  104.2768   15.8573
  2.030  104.8943   15.1952  104.1227   15.7999  104.1463   15.7955  104.8215   15.2553  105.1138   16.2069  105.1284   16.2102
  2.040  105.7624   15.5382  104.9750   16.1512  104.9987   16.1469  105.6904   15.6010  105.9832   16.5714  105.9983   16.5745
  2.050  106.6493   15.8923  105.8456   16.5139  105.8693   16.5095  106.5782   15.9580  106.8715   16.9477  106.8870   16.9506
  2.060  107.5556   16.2582  106.7350   16.8883  106.7589   16.8840  107.4855   16.3269  107.7791   17.3364  107.7951   17.3392
  2.070  108.4819   16.6363  107.6439   17.2752  107.6678   17.2708  108.4128   16.7081  108.7066   17.7381  108.7231   17.7407
  2.080  109.4288   17.0271  108.5727   17.6749  108.5967   17.6706  109.3607   17.1023  109.6546   18.1534  109.6716   18.1558
  2.090  110.3969   17.4314  109.5222   18.0881  109.5463   18.0838  110.3299   17.5101  110.6238   18.5828  110.6413   18.5851
  2.100  111.3869   17.8497  110.4930   18.5155  110.5171   18.5112  111.3211   17.9320  111.6148   19.0271  111.6329   19.0292
  2.110  112.3995   18.2826  111.4856   18.9576  111.5098   18.9533  112.3349   18.3688  112.6282   19.4869  112.6470   19.4888
  2.120  113.4354   18.7308  112.5009   19.4151  112.5251   19.4109  113.3720   18.8211  113.6649   19.9629  113.6842   19.9646
  2.130  114.4954   19.1951  113.5395   19.8889  113.5638   19.8846  114.4333   19.2897  114.7255   20.4560  114.7455   20.4575
  2.140  115.5801   19.6763  114.6021   20.3796  114.6264   20.3754  115.5195   19.7753  115.8107   20.9669  115.8314   20.9682
  2.150  116.6905   20.1752  115.6895   20.8881  115.7139   20.8839  116.6313   20.2789  116.9214   21.4966  116.9428   21.4977
  2.160  117.8273   20.6926  116.8026   21.4152  116.8270   21.4111  117.7697   20.8013  118.0585   22.0460  118.0806   22.0468
  2.170  118.9915   21.2296  117.9421   21.9619  117.9666   21.9578  118.9355   21.3435  119.2226   22.6160  119.2455   22.6166
  2.180  120.1839   21.7870  119.1090   22.5292  119.1335   22.5252  120.1296   21.9064  120.4148   23.2077  120.4386   23.2080
  2.190  121.4056   22.3659  120.3041   23.1182  120.3286   23.1141  121.3530   22.4912  121.6360   23.8222  121.6606   23.8223
  2.200  122.6574   22.9676  121.5283   23.7298  121.5528   23.7258  122.6067   23.0990  122.8870   24.4607  122.9126   24.4605
  2.210  123.9404   23.5930  122.7827   24.3653  122.8072   24.3613  123.8916   23.7310  124.1690   25.1244  124.1955   25.1240
  2.220  125.2556   24.2436  124.0682   25.0261  124.0927   25.0221  125.2089   24.3884  125.4829   25.8148  125.5104   25.8141
  2.230  126.6043   24.9207  125.3859   25.7133  125.4104   25.7093  126.5596   25.0727  126.8299   26.5332  126.8585   26.5322
  2.240  127.9875   25.6257  126.7370   26.4284  126.7614   26.4245  127.9450   25.7854  128.2110   27.2811  128.2407   27.2798
  2.250  129.4064   26.3602  128.1224   27.1731  128.1469   27.1692  129.3662   26.5280  129.6274   28.0603  129.6583   28.0587
  2.260  130.8624   27.1259  129.5435   27.9488  129.5680   27.9449  130.8245   27.3022  131.0804   28.8724  131.1125   28.8704
  2.270  132.3566   27.9244  131.0015   28.7573  131.0259   28.7535  132.3212   28.1098  132.5711   29.7192  132.6046   29.7170
  2.280  133.8905   28.7577  132.4976   29.6006  132.5220   29.5968  133.8576   28.9527  134.1010   30.6029  134.1358   30.6004
  2.290  135.4655   29.6279  134.0333   30.4806  134.0575   30.4768  135.4352   29.8331  135.6712   31.5256  135.7075   31.5227
  2.300  137.0831   30.5371  135.6097   31.3994  135.6339   31.3957  137.0555   30.7530  137.2833   32.4895  137.3212   32.4862
  2.310  138.7447   31.4876  137.2285   32.3594  137.2525   32.3557  138.7199   31.7150  138.9387   33.4970  138.9782   33.4935
  2.320  140.4520   32.4819  138.8911   33.3630  138.9150   33.3593  140.4300   32.7215  140.6390   34.5510  140.6802   34.5471
  2.330  142.2066   33.5228  140.5990   34.4129  140.6227   34.4092  142.1876   33.7754  142.3855   35.6541  142.4286   35.6499
  2.340  144.0103   34.6132  142.3538   35.5118  142.3774   35.5082  143.9942   34.8795  144.1800   36.8095  144.2251   36.8049
  2.350  145.8648   35.7562  144.1572   36.6630  144.1806   36.6593  145.8517   36.0371  146.0242   38.0204  146.0713   38.0155
  2.360  147.7718   36.9551  146.0109   37.8696  146.0341   37.8659  147.7619   37.2517  147.9197   39.2904  147.9689   39.2851
  2.370  149.7335   38.2136  147.9167   39.1353  147.9397   39.1316  149.7266   38.5268  149.8682   40.6233  149.9198   40.6178
  2.380  151.7516   39.5357  149.8763   40.4638  149.8990   40.4601  151.7479   39.8666  151.8716   42.0233  151.9256   42.0174
  2.390  153.8281   40.9256  151.8917   41.8594  151.9141   41.8557  153.8276   41.2754  153.9317   43.4948  153.9884   43.4886
  2.400  155.9653   42.3879  153.9647   43.3265  153.9868   43.3227  155.9679   42.7578  156.0503   45.0427  156.1098   45.0362
  2.410  158.1651   43.9276  156.0973   44.8699  156.1190   44.8661  158.1708   44.3190  158.2295   46.6721  158.2919   46.6654
  2.420  160.4298   45.5501  158.2914   46.4950  158.3127   46.4911  160.4385   45.9646  160.4709   48.3888  160.5365   48.3818
  2.430  162.7615   47.2612  160.5491   48.2074  160.5700   48.2034  162.7730   47.7004  162.7767   50.1989  162.8456   50.1917
  2.440  165.1624   49.0675  162.8723   50.0134  162.8927   50.0092  165.1766   49.5330  165.1486   52.1090  165.2212   52.1017
  2.450  167.6348   50.9757  165.2631   51.9195  165.2830   51.9152  167.6515   51.4695  167.5885   54.1264  167.6649   54.1190
  2.460  170.1809   52.9935  167.7235   53.9332  167.7429   53.9288  170.1997   53.5176  170.0983   56.2591  170.1788   56.2517
  2.470  172.8029   55.1290  170.2554   56.0624  170.2742   56.0577  172.8235   55.6857  172.6796   58.5154  172.7645   58.5081
  2.480  175.5029   57.3914  172.8607   58.3158  172.8788   58.3108  175.5248   57.9830  175.3342   60.9049  175.4238   60.8978
  2.490  178.2829   59.7903  175.5412   60.7028  175.5585   60.6975  178.3055   60.4194  178.0633   63.4377  178.1579   63.4309
  2.500  181.1449   62.3365  178.2985   63.2336  178.3150   63.2280  181.1675   63.0059  180.8683   66.1249  180.9683   66.1185
  2.510  184.0905   65.0417  181.1340   65.9197  181.1497   65.9136  184.1122   65.7545  183.7502   68.9787  183.8559   68.9728
  2.520  187.1212   67.9186  184.0489   68.7731  184.0636   68.7665  187.1410   68.6782  186.7095   72.0122  186.8214   72.0071
  2.530  190.2381   70.9815  187.0441   71.8075  187.0578   71.8003  190.2547   71.7914  189.7463   75.2399  189.8649   75.2359
  2.540  193.4420   74.2456  190.1199   75.0374  190.1325   75.0295  193.4537   75.1097  192.8603   78.6777  192.9860   78.6750
  2.550  196.7329   77.7277  193.2762   78.4791  193.2876   78.4703  196.7380   78.6504  196.0504   82.3429  196.1837   82.3418
  2.560  200.1103   81.4465  196.5122   82.1501  196.5223   82.1403  200.1067   82.4323  199.3146   86.2544  199.4560   86.2553
  2.570  203.5728   85.4222  199.8262   86.0697  199.8350   86.0588  203.5577   86.4760  202.6498   90.4329  202.8000   90.4362
  2.580  207.1180   89.6770  203.2155   90.2591  203.2228   90.2469  207.0883   90.8042  206.0517   94.9009  206.2113   94.9072
  2.590  210.7419   94.2353  206.6762   94.7415  206.6820   94.7277  210.6939   95.4418  209.5144   99.6833  209.6841   99.6931
  2.600  214.4391   99.1240  210.2026   99.5422  210.2068   99.5266  214.3684  100.4160  213.0300  104.8069  213.2104  104.8210
  2.610  218.2021  104.3724  213.7873  104.6889  213.7898  104.6713  218.1035  105.7566  216.5882  110.3011  216.7802  110.3203
  2.620  222.0209  110.0125  217.4204  110.2119  217.4211  110.1918  221.8881  111.4960  220.1760  116.1979  220.3803  116.2231
  2.630  225.8824  116.0794  221.0891  116.1441  221.0880  116.1213  225.7081  117.6698  223.7768  122.5317  223.9943  122.5641
  2.640  229.7700  122.6111  224.7773  122.5215  224.7744  122.4956  229.5456  124.3165  227.3699  129.3401  227.6014  129.3809
  2.650  233.6624  129.6491  228.4645  129.3829  228.4597  129.3533  233.3775  131.4779  230.9296  136.6630  231.1759  136.7140
  2.660  237.5329  137.2381  232.1251  136.7703  232.1185  136.7365  237.1756  139.1989  234.4242  144.5436  234.6862  144.6063
  2.670  241.3482  145.4260  235.7276  144.7286  235.7193  144.6899  240.9044  147.5277  237.8149  153.0271  238.0934  153.1037
  2.680  245.0673  154.2640  239.2329  153.3056  239.2231  153.2615  244.5203  156.5153  241.0544  162.1611  241.3501  162.2541
  2.690  248.6396  163.8061  242.5932  162.5518  242.5822  162.5014  247.9699  166.2153  244.0855  171.9948  244.3989  172.1069
  2.700  252.0031  174.1081  245.7503  172.5195  245.7385  172.4620  251.1882  176.6831  246.8391  182.5778  247.1706  182.7123
  2.710  255.0829  185.2272  248.6339  183.2621  248.6219  183.1965  254.0965  187.9744  249.2327  193.9591  249.5824  194.1195
  2.720  257.7882  197.2199  251.1592  194.8326  251.1476  194.7580  256.6001  200.1439  251.1681  206.1846  251.5358  206.3751
  2.730  260.0105  210.1401  253.2246  207.2816  253.2147  207.1969  258.5861  213.2428  252.5296  219.2950  252.9143  219.5202
  2.740  261.6208  224.0359  254.7101  220.6546  254.7030  220.5588  259.9208  227.3153  253.1817  233.3217  253.5821  233.5869
  2.750  262.4669  238.9452  255.4739  234.9882  255.4714  234.8803  260.4475  242.3942  252.9681  248.2826  253.3816  248.5934
  2.760  262.3720  254.8907  255.3516  250.3051  255.3557  250.1842  259.9847  258.4954  251.7101  264.1761  252.1332  264.5385
  2.770  261.1329  271.8723  254.1538  266.6077  254.1672  266.4733  258.3252  275.6103  249.2072  280.9740  249.6351  281.3942
  2.780  258.5203  289.8589  251.6669  283.8707  251.6925  283.7224  255.2370  293.6972  245.2392  298.6131  245.6652  299.0975
  2.790  254.2813  308.7780  247.6540  302.0312  247.6954  301.8695  250.4658  312.6710  239.5700  316.9859  239.9857  317.5405
  2.800  248.1440  328.5039  241.8600  320.9785  241.9211  320.8043  243.7415  332.3915  231.9555  335.9313  232.3504  336.5611
  2.810  239.8281  348.8460  234.0192  340.5422  234.1042  340.3576  234.7886  352.6523  222.1551  355.2246  222.5166  355.9334
  2.820  229.0586  369.5367  223.8681  360.4818  223.9813  360.2902  223.3417  373.1694  209.9477  374.5706  210.2610  375.3600
  2.830  215.5873  390.2234  211.1641  380.4770  211.3095  380.2832  209.1667  393.5745  195.1521  393.6006  195.4005  394.4690
  2.840  199.2188  410.4642  195.7088  400.1241  195.8896  399.9341  192.0880  413.4131  177.6512  411.8744  177.8170  412.8167
  2.850  179.8426  429.7341  177.3771  418.9379  177.5953  418.7596  172.0192  432.1518  157.4182  428.8919  157.4836  429.8985
  2.860  157.4658  447.4420  156.1484  436.3660  156.4040  436.2081  148.9946  449.1975  134.5417  444.1147  134.4899  445.1711
  2.870  132.2442  462.9620  132.1365  451.8144  132.4271  451.6864  123.1981  463.9302  109.2450  456.9973  109.0618  458.0842
  2.880  104.5026  475.6795  105.6115  464.6881  105.9319  464.5992   94.9797  475.7489   81.8948  467.0289   81.5703  468.1231
  2.890   74.7390  485.0481   77.0087  474.4415   77.3510  474.3999   64.8576  484.1268   52.9963  473.7796   52.5261  474.8547
  2.900   43.6056  490.6507   46.9166  480.6358   47.2704  480.6478   33.4963  488.6694   23.1691  476.9462   22.5551  477.9747
  2.910   11.8646  492.2534   16.0427  482.9923   16.3955  483.0611    1.6626  489.1643   -6.8935  476.3894   -7.6425  477.3446
  2.920  -19.6785  489.8420  -14.8437  481.4320  -14.5050  481.5577  -29.8387  485.6133  -36.4789  472.1555  -37.3482  473.0134
  2.930  -50.2549  483.6295  -44.9827  476.0916  -44.6711  476.2708  -60.2405  478.2376  -64.9182  464.4770  -65.8881  465.2180
  2.940  -79.2142  474.0306  -73.7001  467.3104  -73.4279  467.5360  -88.8875  467.4521  -91.6461  453.7491  -92.6937  454.3589
  2.950 -106.0916  461.6020 -100.4761  455.5849 -100.2534  455.8471 -115.2975  453.8109 -116.2506  440.4838 -117.3517  440.9536
  2.960 -130.6481  446.9551 -124.9920  441.4977 -124.8263  441.7839 -139.1954  437.9306 -138.5038  425.2456 -139.6340  425.5717
  2.970 -152.8669  430.6517 -147.1426  425.6255 -147.0382  425.9210 -160.5132  420.4010 -158.3628  408.5756 -159.4987  408.7584
  2.980 -172.8944  413.1037 -167.0028  408.4443 -166.9596  408.7332 -179.3442  401.7017 -175.9359  390.9156 -177.0553  390.9588
  2.990 -190.9216  394.5142 -184.7393  390.2600 -184.7518  390.5263 -195.8542  382.1497 -191.4062  372.5549 -192.4877  372.4652
  3.000 -207.0358  374.9079 -200.4863  371.2034 -200.5434  371.4339 -210.1698  361.9127 -204.9292  353.6311 -205.9517  353.4187
  3.010 -221.1220  354.2703 -214.2408  351.3188 -214.3270  351.5060 -222.2999  341.0996 -216.5479  334.2036 -217.4917  333.8836
  3.020 -232.9000  332.7294 -225.8529  330.7086 -225.9522  330.8521 -232.1503  319.8852 -226.1866  314.3709 -227.0358  313.9641
  3.030 -242.0930  310.6502 -235.1324  309.6363 -235.2319  309.7426 -239.6298  298.5771 -233.7353  294.3539 -234.4808  293.8850
  3.040 -248.6036  288.5678 -241.9907  288.5124 -242.0835  288.5910 -244.7641  277.5766 -239.1631  274.4839 -239.8040  273.9779
  3.050 -252.5761  267.0287 -246.5167  267.7870 -246.6014  267.8467 -247.7356  257.2749 -242.5770  255.1174 -243.1193  254.5960
  3.060 -254.3375  246.4583 -248.9554  247.8389 -249.0342  247.8861 -248.8422  237.9677 -244.2037  236.5495 -244.6576  236.0296
  3.070 -254.2932  227.1120 -249.6354  228.9207 -249.7121  228.9587 -248.4264  219.8251 -244.3314  218.9716 -244.7092  218.4646
  3.080 -252.8416  209.0933 -248.8985  211.1584 -248.9767  211.1879 -246.8172  202.9067 -243.2545  202.4727 -243.5681  201.9858
  3.090 -250.3292  192.3975 -247.0553  194.5798 -247.1379  194.5996 -244.2996  187.1928 -241.2385  187.0624 -241.4990  186.5995
  3.100 -247.0354  176.9537 -244.3666  179.1465 -244.4556  179.1544 -241.1055  172.6149 -238.5061  172.6977 -238.7233  172.2605
  3.110 -243.1753  162.6561 -241.0399  164.7818 -241.1365  164.7744 -237.4156  159.0784 -235.2349  159.3046 -235.4175  158.8929
  3.120 -238.9079  149.3842 -237.2339  151.3882 -237.3380  151.3620 -233.3661  146.4767 -231.5615  146.7928 -231.7165  146.4048
  3.130 -234.3461  137.0140 -233.0645  138.8605 -233.1752  138.8113 -229.0552  134.7004 -227.5864  135.0650 -227.7196  134.6981
  3.140 -229.5644  125.4251 -228.6108  127.0928 -228.7261  127.0160 -224.5496  123.6418 -223.3789  124.0231 -223.4946  123.6735
  3.150 -224.6047  114.5041 -223.9206  115.9832 -224.0371  115.8739 -219.8882  113.1976 -218.9813  113.5709 -219.0817  113.2345
  3.160 -219.4807  104.1471 -219.0134  105.4374 -219.1260  105.2905 -215.0853  103.2715 -214.4109  103.6171 -214.4960  103.2897
  3.170 -214.1801   94.2616 -213.8828   95.3717 -213.9843   95.1820 -210.1315   93.7751 -209.6606   94.0766 -209.7281   93.7550
  3.180 -208.6651   84.7698 -208.4981   85.7158 -208.5786   85.4792 -204.9935   84.6307 -204.6984   84.8735 -204.7440   84.5567
  3.190 -202.8725   75.6121 -202.8043   76.4179 -202.8508   76.1315 -199.6128   75.7747 -199.4647   75.9450 -199.4830   75.6359
  3.200 -196.7120   66.7550 -196.7223   67.4507 -196.7182   67.1150 -193.9031   67.1645 -193.8686   67.2504 -193.8557   66.9565
  3.210 -190.0666   58.2027 -190.1498   58.8228 -190.0751   58.4436 -187.7477   58.7895 -187.7857   58.7846 -187.7426   58.5179
  3.220 -182.7974   50.0160 -182.9667   50.5939 -182.7994   50.1852 -181.0010   50.6904 -181.0605   50.6024 -180.9974   50.3760
  3.230 -174.7600   42.3370 -175.0504   42.8959 -174.7700   42.4827 -173.4996   42.9867 -173.5254   42.8497 -173.4637   42.6707
  3.240 -165.8435   35.4142 -166.3087   35.9527 -165.9023   35.5729 -165.0957   35.9092 -165.0467   35.7961 -165.0154   35.6547
  3.250 -156.0383   29.6088 -156.7378   30.0857 -156.2085   29.7878 -155.7263   29.8218 -155.6097   29.8411 -155.6299   29.7025
  3.260 -145.5254   25.3498 -146.4959   25.6779 -145.8717   25.5121 -145.5175   25.1933 -145.4240   25.4515 -145.4859   25.2635
  3.270 -134.7401   23.0141 -135.9622   23.0770 -135.2973   23.0790 -134.8828   22.4773 -134.9840   23.0066 -135.0317   22.7300
  3.280 -124.3382   22.7513 -125.7205   22.4477 -125.0843   22.6224 -124.5187   21.8992 -124.9930   22.5985 -124.9446   22.2484
  3.290 -115.0261   24.3546 -116.4287   23.6470 -115.8836   23.9632 -115.2134   23.2703 -116.1370   23.9293 -115.9386   23.5860
  3.300 -107.3261   27.2863 -108.6156   26.2157 -108.1975   26.6190 -107.5429   25.9997 -108.8402   26.4092 -108.5126   26.1763
  3.310 -101.4254   30.8578 -102.5193   29.5133 -102.2324   29.9467 -101.6716   29.3372 -103.1722   29.3898 -102.8051   29.3287
  3.320  -97.1846   34.4438  -98.0544   32.9170  -97.8805   33.3362  -97.3969   32.6582  -98.9338   32.3624  -98.6323   32.4567
  3.330  -94.2559   37.6176  -94.9021   35.9818  -94.8117   36.3592  -94.3461   35.6000  -95.8143   35.0276  -95.6398   35.2000
  3.340  -92.2255   40.1909  -92.6615   38.5071  -92.6215   38.8330  -92.1554   38.0316  -93.5122   37.2613  -93.4585   37.4240
  3.350  -90.7416   42.1825  -90.9977   40.5008  -90.9814   40.7834  -90.5531   39.9560  -91.7906   39.0445  -91.8031   39.1472
  3.360  -89.6020   43.7194  -89.7201   42.0649  -89.7168   42.3204  -89.3628   41.4229  -90.4818   40.4048  -90.5008   40.4489
  3.370  -88.7452   44.9083  -88.7562   43.2811  -88.7693   43.5195  -88.4738   42.4817  -89.4712   41.3798  -89.4651   41.3985
  3.380  -88.1597   45.7749  -88.0737   44.1702  -88.1083   44.3904  -87.8084   43.1661  -88.6761   42.0026  -88.6464   42.0301
  3.390  -87.8078   46.2927  -87.6245   44.7163  -87.6803   44.9120  -87.2989   43.4980  -88.0293   42.2998  -87.9954   42.3533
  3.400  -87.6122   46.4368  -87.3345   44.9042  -87.4055   45.0701  -86.8791   43.4981  -87.4703   42.2964  -87.4525   42.3744
  3.410  -87.4784   46.2123  -87.1175   44.7412  -87.1956   44.8758  -86.4840   43.1946  -86.9434   42.0208  -86.9532   42.1118
  3.420  -87.3190   45.6554  -86.8927   44.2596  -86.9701   44.3649  -86.0559   42.6268  -86.3994   41.5082  -86.4385   41.5985
  3.430  -87.0667   44.8236  -86.5960   43.5105  -86.6671   43.5906  -85.5502   41.8434  -85.7992   40.7998  -85.8628   40.8791
  3.440  -86.6791   43.7833  -86.1847   42.5539  -86.2462   42.6138  -84.9378   40.8971  -85.1158   39.9401  -85.1962   40.0027
  3.450  -86.1366   42.5997  -85.6367   41.4501  -85.6870   41.4945  -84.2052   39.8391  -84.3348   38.9731  -84.4243   39.0175
  3.460  -85.4369   41.3305  -84.9464   40.2537  -84.9853   40.2866  -83.3513   38.7149  -83.4520   37.9387  -83.5444   37.9662
  3.470  -84.5897   40.0231  -84.1200   39.0103  -84.1480   39.0349  -82.3841   37.5621  -82.4716   36.8709  -82.5626   36.8841
  3.480  -83.6112   38.7139  -83.1706   37.7557  -83.1887   37.7744  -81.3164   36.4097  -81.4028   35.7970  -81.4896   35.7991
  3.490  -82.5209   37.4295  -82.1150   36.5168  -82.1243   36.5312  -80.1637   35.2793  -80.2575   34.7379  -80.3388   34.7318
  3.500  -81.3386   36.1882  -80.9710   35.3123  -80.9724   35.3238  -78.9416   34.1855  -79.0488   33.7085  -79.1241   33.6967
  3.510  -80.0828   35.0017  -79.7556   34.1550  -79.7501   34.1645  -77.6649   33.1380  -77.7894   32.7191  -77.8588   32.7037
  3.520  -78.7702   33.8772  -78.4844   33.0529  -78.4728   33.0609  -76.3469   32.1427  -76.4910   31.7763  -76.5549   31.7589
  3.530  -77.4155   32.8181  -77.1713   32.0104  -77.1543   32.0173  -74.9990   31.2023  -75.1642   30.8841  -75.2231   30.8659
  3.540  -76.0307   31.8255  -75.8280   31.0293  -75.8062   31.0354  -73.6310   30.3180  -73.8179   30.0441  -73.8725   30.0260
  3.550  -74.6262   30.8989  -74.4646   30.1097  -74.4384   30.1153  -72.2511   29.4892  -72.4600   29.2568  -72.5109   29.2394
  3.560  -73.2104   30.0366  -73.0893   29.2508  -73.0591   29.2558  -70.8658   28.7148  -71.0968   28.5218  -71.1445   28.5055
  3.570  -71.7903   29.2365  -71.7090   28.4505  -71.6752   28.4552  -69.4808   27.9929  -69.7336   27.8376  -69.7788   27.8228
  3.580  -70.3713   28.4959  -70.3294   27.7069  -70.2922   27.7112  -68.1004   27.3215  -68.3750   27.2028  -68.4179   27.1896
  3.590  -68.9580   27.8121  -68.9550   27.0172  -68.9145   27.0213  -66.7280   26.6982  -67.0243   26.6156  -67.0655   26.6040
  3.600  -67.5540   27.1823  -67.5894   26.3790  -67.5458   26.3829  -65.3664   26.1207  -65.6845   26.0738  -65.7242   26.0641
  3.610  -66.1620   26.6036  -66.2357   25.7897  -66.1891   25.7933  -64.0179   25.5867  -64.3579   25.5757  -64.3965   25.5677
  3.620  -64.7842   26.0736  -64.8960   25.2466  -64.8465   25.2501  -62.6841   25.0939  -63.0463   25.1192  -63.0839   25.1130
  3.630  -63.4225   25.5896  -63.5723   24.7474  -63.5199   24.7507  -61.3662   24.6404  -61.7511   24.7025  -61.7880   24.6980
  3.640  -62.0780   25.1494  -62.2658   24.2895  -62.2106   24.2928  -60.0651   24.2240  -60.4733   24.3238  -60.5097   24.3209
  3.650  -60.7517   24.7508  -60.9776   23.8709  -60.9197   23.8742  -58.7814   23.8428  -59.2137   23.9813  -59.2497   23.9800
  3.660  -59.4443   24.3917  -59.7085   23.4895  -59.6478   23.4928  -57.5154   23.4951  -57.9730   23.6734  -58.0088   23.6737
  3.670  -58.1563   24.0704  -58.4589   23.1432  -58.3954   23.1466  -56.2674   23.1794  -56.7514   23.3988  -56.7871   23.4005
  3.680  -56.8878   23.7853  -57.2291   22.8304  -57.1628   22.8338  -55.0373   22.8940  -55.5493   23.1560  -55.5849   23.1591
  3.690  -55.6390   23.5347  -56.0192   22.5492  -55.9501   22.5529  -53.8250   22.6376  -54.3666   22.9439  -54.4022   22.9482
  3.700  -54.4099   23.3174  -54.8292   22.2983  -54.7571   22.3022  -52.6302   22.4091  -53.2035   22.7613  -53.2391   22.7667
  3.710  -53.2003   23.1323  -53.6588   22.0761  -53.5839   22.0805  -51.4524   22.2073  -52.0597   22.6072  -52.0953   22.6137
  3.720  -52.0101   22.9782  -52.5078   21.8816  -52.4299   21.8864  -50.2913   22.0313  -50.9351   22.4808  -50.9707   22.4883
  3.730  -50.8390   22.8545  -51.3758   21.7135  -51.2949   21.7188  -49.1463   21.8802  -49.8294   22.3814  -49.8652   22.3898
  3.740  -49.6869   22.7602  -50.2625   21.5708  -50.1785   21.5768  -48.0167   21.7533  -48.7426   22.3082  -48.7783   22.3174
  3.750  -48.5533   22.6950  -49.1672   21.4528  -49.0801   21.4595  -46.9020   21.6501  -47.6742   22.2609  -47.7098   22.2708
  3.760  -47.4381   22.6583  -48.0894   21.3586  -47.9992   21.3662  -45.8015   21.5702  -46.6240   22.2390  -46.6594   22.2496
  3.770  -46.3409   22.6498  -47.0286   21.2877  -46.9351   21.2963  -44.7143   21.5131  -45.5918   22.2422  -45.6269   22.2534
  3.780  -45.2615   22.6693  -45.9841   21.2397  -45.8873   21.2494  -43.6398   21.4789  -44.5772   22.2703  -44.6120   22.2821
  3.790  -44.1999   22.7168  -44.9553   21.2142  -44.8551   21.2251  -42.5772   21.4673  -43.5802   22.3233  -43.6144   22.3357
  3.800  -43.1558   22.7924  -43.9415   21.2110  -43.8379   21.2234  -41.5258   21.4786  -42.6005   22.4012  -42.6340   22.4142
  3.810  -42.1292   22.8961  -42.9422   21.2300  -42.8350   21.2440  -40.4847   21.5129  -41.6381   22.5041  -41.6707   22.5177
  3.820  -41.1201   23.0282  -41.9565   21.2714  -41.8457   21.2871  -39.4533   21.5707  -40.6928   22.6322  -40.7243   22.6466
  3.830  -40.1288   23.1890  -40.9840   21.3354  -40.8695   21.3531  -38.4307   21.6526  -39.7648   22.7858  -39.7951   22.8011
  3.840  -39.1555   23.3789  -40.0241   21.4223  -39.9057   21.4421  -37.4164   21.7591  -38.8541   22.9651  -38.8829   22.9815
  3.850  -38.2005   23.5981  -39.0761   21.5327  -38.9538   21.5549  -36.4096   21.8913  -37.9609   23.1707  -37.9882   23.1885
  3.860  -37.2643   23.8472  -38.1395   21.6673  -38.0132   21.6922  -35.4097   22.0501  -37.0855   23.4030  -37.1112   23.4223
  3.870  -36.3475   24.1266  -37.2139   21.8269  -37.0835   21.8548  -34.4163   22.2368  -36.2283   23.6625  -36.2522   23.6837
  3.880  -35.4506   24.4365  -36.2990   22.0127  -36.1644   22.0438  -33.4287   22.4529  -35.3896   23.9497  -35.4119   23.9732
  3.890  -34.5746   24.7775  -35.3945   22.2259  -35.2556   22.2605  -32.4467   22.6999  -34.5700   24.2653  -34.5907   24.2913
  3.900  -33.7199   25.1497  -34.5002   22.4679  -34.3569   22.5065  -31.4700   22.9797  -33.7701   24.6099  -33.7894   24.6388
  3.910  -32.8875   25.5535  -33.6162   22.7404  -33.4684   22.7833  -30.4986   23.2945  -32.9906   24.9843  -33.0086   25.0162
  3.920  -32.0779   25.9893  -32.7427   23.0453  -32.5903   23.0930  -29.5323   23.6466  -32.2320   25.3892  -32.2492   25.4243
  3.930  -31.2918   26.4573  -31.8801   23.3848  -31.7231   23.4378  -28.5716   24.0387  -31.4953   25.8257  -31.5119   25.8640
  3.940  -30.5297   26.9581  -31.0291   23.7612  -30.8674   23.8201  -27.6170   24.4735  -30.7814   26.2948  -30.7977   26.3363
  3.950  -29.7919   27.4924  -30.1909   24.1772  -30.0244   24.2426  -26.6691   24.9544  -30.0912   26.7980  -30.1074   26.8423
  3.960  -29.0788   28.0615  -29.3667   24.6356  -29.1956   24.7083  -25.7293   25.4850  -29.4261   27.3369  -29.4420   27.3835
  3.970  -28.3906   28.6668  -28.5588   25.1397  -28.3830   25.2203  -24.7991   26.0690  -28.7875   27.9132  -28.8029   27.9619
  3.980  -27.7279   29.3107  -27.7695   25.6927  -27.5893   25.7822  -23.8806   26.7107  -28.1775   28.5295  -28.1917   28.5798
  3.990  -27.0915   29.9962  -27.0021   26.2982  -26.8176   26.3976  -22.9764   27.4147  -27.5985   29.1882  -27.6107   29.2401
  4.000  -26.4829   30.7272  -26.2607   26.9598  -26.0723   27.0701  -22.0901   28.1859  -27.0538   29.8924  -27.0628   29.9460
  4.010  -25.9046   31.5082  -25.5503   27.6811  -25.3585   27.8035  -21.2260   29.0296  -26.5477   30.6452  -26.5522   30.7012
  4.020  -25.3604   32.3445  -24.8769   28.4658  -24.6823   28.6015  -20.3893   29.9513  -26.0858   31.4499  -26.0844   31.5098
  4.030  -24.8559   33.2420  -24.2478   29.3171  -24.0514   29.4674  -19.5867   30.9567  -25.6749   32.3098  -25.6665   32.3753
  4.040  -24.3988   34.2064  -23.6718   30.2376  -23.4747   30.4039  -18.8262   32.0517  -25.3237   33.2274  -25.3077   33.3013
  4.050  -23.9991   35.2432  -23.1587   31.2294  -22.9624   31.4131  -18.1174   33.2421  -25.0426   34.2046  -25.0192   34.2898
  4.060  -23.6694   36.3568  -22.7202   32.2930  -22.5265   32.4954  -17.4721   34.5333  -24.8440   35.2418  -24.8143   35.3415
  4.070  -23.4250   37.5500  -22.3693   33.4276  -22.1805   33.6501  -16.9041   35.9302  -24.7423   36.3370  -24.7084   36.4546
  4.080  -23.2838   38.8229  -22.1204   34.6302  -21.9391   34.8737  -16.4298   37.4364  -24.7533   37.4859  -24.7185   37.6239
  4.090  -23.2660   40.1725  -21.9887   35.8951  -21.8182   36.1603  -16.0682   39.0540  -24.8943   38.6800  -24.8627   38.8404
  4.100  -23.3936   41.5911  -21.9904   37.2136  -21.8342   37.5007  -15.8414   40.7826  -25.1830   39.9067  -25.1594   40.0903
  4.110  -23.6896   43.0661  -22.1415   38.5731  -22.0037   38.8817  -15.7742   42.6184  -25.6363   41.1482  -25.6258   41.3544
  4.120  -24.1768   44.5787  -22.4574   39.9573  -22.3423   40.2862  -15.8940   44.5531  -26.2694   42.3812  -26.2769   42.6081
  4.130  -24.8763   46.1036  -22.9515   41.3455  -22.8634   41.6925  -16.2306   46.5725  -27.0935   43.5768  -27.1232   43.8210
  4.140  -25.8057   47.6086  -23.6344   42.7128  -23.5777   43.0748  -16.8147   48.6553  -28.1139   44.7012  -28.1691   44.9584
  4.150  -26.9768   49.0552  -24.5127   44.0310  -24.4913   44.4036  -17.6766   50.7715  -29.3285   45.7168  -29.4112   45.9822
  4.160  -28.3937   50.3994  -25.5877   45.2685  -25.6047   45.6462  -18.8439   52.8817  -30.7258   46.5848  -30.8366   46.8533
  4.170  -30.0505   51.5936  -26.8546   46.3919  -26.9121   46.7683  -20.3384   54.9361  -32.2843   47.2675  -32.4225   47.5341
  4.180  -31.9299   52.5895  -28.3013   47.3673  -28.4001   47.7352  -22.1725   56.8754  -33.9723   47.7316  -34.1362   47.9920
  4.190  -34.0025   53.3409  -29.9086   48.1619  -30.0478   48.5139  -24.3459   58.6323  -35.7497   47.9515  -35.9369   48.2023
  4.200  -36.2271   53.8078  -31.6497   48.7460  -31.8265   49.0749  -26.8410   60.1350  -37.5702   47.9120  -37.7778   48.1506
  4.210  -38.5526   53.9594  -33.4907   49.0948  -33.7007   49.3939  -29.6213   61.3125  -39.3847   47.6097  -39.6096   47.8341
  4.220  -40.9205   53.7773  -35.3919   49.1907  -35.6293   49.4545  -32.6302   62.1002  -41.1452   47.0531  -41.3842   47.2623
  4.230  -43.2684   53.2572  -37.3096   49.0247  -37.5673   49.2492  -35.7928   62.4477  -42.8081   46.2620  -43.0583   46.4555
  4.240  -45.5348   52.4098  -39.1983   48.5975  -39.4685   48.7808  -39.0205   62.3243  -44.3373   45.2647  -44.5960   45.4425
  4.250  -47.6627   51.2598  -41.0134   47.9205  -41.2887   48.0623  -42.2181   61.7232  -45.7058   44.0955  -45.9705   44.2581
  4.260  -49.6036   49.8438  -42.7146   47.0145  -42.9876   47.1162  -45.2914   60.6631  -46.8960   42.7915  -47.1645   42.9396
  4.270  -51.3202   48.2072  -44.2679   45.9084  -44.5324   45.9729  -48.1560   59.1860  -47.8999   41.3896  -48.1703   41.5245
  4.280  -52.7881   46.4006  -45.6478   44.6369  -45.8988   44.6683  -50.7434   57.3521  -48.7170   39.9248  -48.9879   40.0478
  4.290  -53.9952   44.4753  -46.8382   43.2377  -47.0719   43.2406  -53.0049   55.2337  -49.3537   38.4282  -49.6239   38.5406
  4.300  -54.9415   42.4808  -47.8320   41.7486  -48.0459   41.7277  -54.9132   52.9075  -49.8206   36.9263  -50.0894   37.0295
  4.310  -55.6366   40.4613  -48.6303   40.2053  -48.8230   40.1654  -56.4607   50.4487  -50.1318   35.4406  -50.3987   35.5360
  4.320  -56.0973   38.4549  -49.2408   38.6395  -49.4120   38.5849  -57.6561   47.9255  -50.3027   33.9881  -50.5675   34.0771
  4.330  -56.3454   36.4921  -49.6760   37.0783  -49.8262   37.0128  -58.5209   45.3967  -50.3493   32.5815  -50.6121   32.6651
  4.340  -56.4052   34.5961  -49.9518   35.5433  -50.0818   35.4703  -59.0848   42.9095  -50.2876   31.2295  -50.5484   31.3088
  4.350  -56.3018   32.7837  -50.0852   34.0513  -50.1964   33.9732  -59.3817   40.5001  -50.1324   29.9381  -50.3916   30.0139
  4.360  -56.0596   31.0656  -50.0939   32.6141  -50.1877   32.5333  -59.4475   38.1943  -49.8976   28.7104  -50.1556   28.7835
  4.370  -55.7016   29.4479  -49.9950   31.2399  -50.0730   31.1580  -59.3169   36.0091  -49.5957   27.5478  -49.8528   27.6187
  4.380  -55.2485   27.9328  -49.8044   29.9334  -49.8682   29.8517  -59.0227   33.9542  -49.2379   26.4501  -49.4945   26.5194
  4.390  -54.7187   26.5198  -49.5368   28.6971  -49.5877   28.6163  -58.5943   32.0333  -48.8338   25.4162  -49.0903   25.4841
  4.400  -54.1284   25.2060  -49.2050   27.5311  -49.2445   27.4520  -58.0579   30.2464  -48.3919   24.4440  -48.6488   24.5108
  4.410  -53.4910   23.9876  -48.8206   26.4344  -48.8497   26.3573  -57.4362   28.5900  -47.9196   23.5309  -48.1772   23.5970
  4.420  -52.8184   22.8595  -48.3933   25.4049  -48.4132   25.3300  -56.7483   27.0588  -47.4231   22.6743  -47.6817   22.7397
  4.430  -52.1200   21.8163  -47.9316   24.4398  -47.9433   24.3673  -56.0104   25.6460  -46.9078   21.8711  -47.1678   21.9360
  4.440  -51.4039   20.8524  -47.4427   23.5360  -47.4470   23.4658  -55.2361   24.3443  -46.3780   21.1183  -46.6397   21.1827
  4.450  -50.6767   19.9620  -46.9327   22.6900  -46.9302   22.6220  -54.4363   23.1460  -45.8377   20.4128  -46.1014   20.4769
  4.460  -49.9437   19.1398  -46.4067   21.8985  -46.3980   21.8326  -53.6201   22.0434  -45.2900   19.7518  -45.5559   19.8155
  4.470  -49.2092   18.3805  -45.8688   21.1580  -45.8545   21.0941  -52.7949   21.0291  -44.7375   19.1323  -45.0059   19.1957
  4.480  -48.4766   17.6791  -45.3227   20.4652  -45.3032   20.4031  -51.9664   20.0959  -44.1826   18.5518  -44.4536   18.6149
  4.490  -47.7487   17.0310  -44.7714   19.8170  -44.7469   19.7564  -51.1393   19.2373  -43.6269   18.0075  -43.9009   18.0705
  4.500  -47.0275   16.4319  -44.2171   19.2102  -44.1880   19.1510  -50.3173   18.4469  -43.0721   17.4973  -43.3492   17.5600
  4.510  -46.3149   15.8778  -43.6620   18.6422  -43.6285   18.5842  -49.5033   17.7190  -42.5193   17.0189  -42.7998   17.0813
  4.520  -45.6118   15.3653  -43.1077   18.1102  -43.0699   18.0533  -48.6994   17.0484  -41.9696   16.5701  -42.2537   16.6323
  4.530  -44.9194   14.8908  -42.5554   17.6118  -42.5136   17.5558  -47.9072   16.4301  -41.4239   16.1491  -41.7117   16.2112
  4.540  -44.2383   14.4515  -42.0064   17.1448  -41.9605   17.0895  -47.1281   15.8599  -40.8827   15.7542  -41.1744   15.8160
  4.550  -43.5689   14.0445  -41.4613   16.7070  -41.4115   16.6523  -46.3627   15.3337  -40.3466   15.3836  -40.6425   15.4452
  4.560  -42.9114   13.6675  -40.9211   16.2965  -40.8672   16.2422  -45.6117   14.8479  -39.8160   15.0359  -40.1163   15.0972
  4.570  -42.2661   13.3180  -40.3861   15.9116  -40.3283   15.8577  -44.8754   14.3992  -39.2912   14.7096  -39.5962   14.7707
  4.580  -41.6329   12.9941  -39.8568   15.5507  -39.7951   15.4969  -44.1540   13.9847  -38.7725   14.4035  -39.0823   14.4644
  4.590  -41.0118   12.6939  -39.3336   15.2121  -39.2678   15.1584  -43.4475   13.6017  -38.2600   14.1165  -38.5748   14.1771
  4.600  -40.4027   12.4158  -38.8166   14.8946  -38.7468   14.8410  -42.7557   13.2477  -37.7539   13.8474  -38.0740   13.9078
  4.610  -39.8055   12.1581  -38.3061   14.5969  -38.2322   14.5432  -42.0786   12.9205  -37.2542   13.5952  -37.5798   13.6553
  4.620  -39.2198   11.9194  -37.8022   14.3179  -37.7240   14.2640  -41.4158   12.6183  -36.7609   13.3591  -37.0923   13.4188
  4.630  -38.6455   11.6986  -37.3050   14.0564  -37.2224   14.0023  -40.7671   12.3391  -36.2741   13.1381  -36.6115   13.1975
  4.640  -38.0823   11.4945  -36.8144   13.8115  -36.7274   13.7572  -40.1322   12.0814  -35.7937   12.9316  -36.1374   12.9906
  4.650  -37.5299   11.3060  -36.3305   13.5824  -36.2389   13.5278  -39.5106   11.8437  -35.3196   12.7387  -35.6699   12.7974
  4.660  -36.9880   11.1323  -35.8532   13.3681  -35.7569   13.3132  -38.9021   11.6246  -34.8519   12.5589  -35.2091   12.6171
  4.670  -36.4564   10.9723  -35.3825   13.1680  -35.2814   13.1128  -38.3062   11.4231  -34.3904   12.3916  -34.7548   12.4493
  4.680  -35.9348   10.8255  -34.9185   12.9814  -34.8123   12.9258  -37.7225   11.2379  -33.9351   12.2362  -34.3071   12.2933
  4.690  -35.4229   10.6910  -34.4608   12.8076  -34.3495   12.7516  -37.1507   11.0682  -33.4859   12.0922  -33.8657   12.1487
  4.700  -34.9204   10.5682  -34.0096   12.6461  -33.8929   12.5897  -36.5904   10.9130  -33.0426   11.9592  -33.4306   12.0150
  4.710  -34.4271   10.4566  -33.5647   12.4963  -33.4424   12.4396  -36.0412   10.7715  -32.6052   11.8368  -33.0018   11.8917
  4.720  -33.9426   10.3556  -33.1260   12.3578  -32.9980   12.3007  -35.5028   10.6430  -32.1735   11.7245  -32.5792   11.7785
  4.730  -33.4667   10.2647  -32.6935   12.2301  -32.5594   12.1726  -34.9748   10.5268  -31.7476   11.6220  -32.1626   11.6750
  4.740  -32.9993   10.1835  -32.2670   12.1127  -32.1267   12.0550  -34.4569   10.4224  -31.3272   11.5291  -31.7521   11.5808
  4.750  -32.5399   10.1117  -31.8464   12.0054  -31.6996   11.9474  -33.9487   10.3292  -30.9122   11.4453  -31.3474   11.4958
  4.760  -32.0885   10.0488  -31.4317   11.9078  -31.2782   11.8496  -33.4500   10.2467  -30.5027   11.3706  -30.9487   11.4195
  4.770  -31.6448    9.9945  -31.0228   11.8196  -30.8622   11.7612  -32.9604   10.1745  -30.0984   11.3046  -30.5557   11.3518
  4.780  -31.2085    9.9485  -30.6195   11.7404  -30.4516   11.6819  -32.4797   10.1122  -29.6993   11.2471  -30.1685   11.2924
  4.790  -30.7796    9.9107  -30.2219   11.6701  -30.0463   11.6116  -32.0075   10.0595  -29.3054   11.1979  -29.7869   11.2411
  4.800  -30.3578    9.8806  -29.8297   11.6084  -29.6462   11.5500  -31.5437   10.0159  -28.9164   11.1569  -29.4109   11.1977
  4.810  -29.9429    9.8582  -29.4430   11.5551  -29.2512   11.4968  -31.0879    9.9813  -28.5324   11.1240  -29.0405   11.1620
  4.820  -29.5348    9.8431  -29.0616   11.5099  -28.8612   11.4520  -30.6401    9.9554  -28.1533   11.0989  -28.6757   11.1340
  4.830  -29.1334    9.8353  -28.6856   11.4728  -28.4761   11.4154  -30.1998    9.9380  -27.7789   11.0817  -28.3163   11.1133
  4.840  -28.7384    9.8347  -28.3148   11.4435  -28.0958   11.3868  -29.7670    9.9289  -27.4094   11.0722  -27.9624   11.1000
  4.850  -28.3498    9.8409  -27.9492   11.4220  -27.7203   11.3661  -29.3415    9.9278  -27.0445   11.0703  -27.6141   11.0938
  4.860  -27.9674    9.8540  -27.5887   11.4080  -27.3495   11.3531  -28.9230    9.9348  -26.6842   11.0760  -27.2711   11.0947
  4.870  -27.5911    9.8738  -27.2333   11.4016  -26.9833   11.3479  -28.5115    9.9495  -26.3286   11.0892  -26.9337   11.1025
  4.880  -27.2207    9.9002  -26.8830   11.4025  -26.6216   11.3504  -28.1067    9.9720  -25.9776   11.1100  -26.6017   11.1172
  4.890  -26.8563    9.9331  -26.5377   11.4107  -26.2644   11.3604  -27.7085   10.0021  -25.6310   11.1383  -26.2752   11.1387
  4.900  -26.4977    9.9725  -26.1974   11.4261  -25.9116   11.3781  -27.3169   10.0399  -25.2890   11.1740  -25.9542   11.1669
  4.910  -26.1447   10.0183  -25.8621   11.4487  -25.5632   11.4032  -26.9315   10.0852  -24.9515   11.2173  -25.6388   11.2017
  4.920  -25.7974   10.0705  -25.5317   11.4784  -25.2191   11.4360  -26.5525   10.1380  -24.6185   11.2682  -25.3290   11.2430
  4.930  -25.4556   10.1291  -25.2062   11.5152  -24.8792   11.4762  -26.1796   10.1983  -24.2900   11.3267  -25.0248   11.2908
  4.940  -25.1192   10.1939  -24.8856   11.5590  -24.5436   11.5242  -25.8128   10.2662  -23.9660   11.3929  -24.7263   11.3450
  4.950  -24.7881   10.2652  -24.5700   11.6099  -24.2121   11.5797  -25.4520   10.3416  -23.6465   11.4669  -24.4336   11.4056
  4.960  -24.4623   10.3427  -24.2592   11.6679  -23.8847   11.6431  -25.0971   10.4247  -23.3316   11.5488  -24.1467   11.4724
  4.970  -24.1417   10.4267  -23.9533   11.7330  -23.5614   11.7143  -24.7481   10.5155  -23.0212   11.6388  -23.8657   11.5455
  4.980  -23.8261   10.5171  -23.6522   11.8052  -23.2421   11.7936  -24.4049   10.6142  -22.7154   11.7370  -23.5906   11.6247
  4.990  -23.5156   10.6141  -23.3561   11.8846  -22.9269   11.8810  -24.0675   10.7208  -22.4144   11.8435  -23.3216   11.7100
  5.000  -23.2100   10.7178  -23.0648   11.9714  -22.6157   11.9769  -23.7358   10.8356  -22.1181   11.9587  -23.0588   11.8014
  5.010  -22.9092   10.8284  -22.7784   12.0656  -22.3085   12.0814  -23.4100   10.9589  -21.8267   12.0828  -22.8021   11.8987
  5.020  -22.6133   10.9460  -22.4969   12.1673  -22.0053   12.1949  -23.0899   11.0907  -21.5403   12.2161  -22.5517   12.0020
  5.030  -22.3220   11.0709  -22.2204   12.2769  -21.7063   12.3178  -22.7756   11.2316  -21.2591   12.3589  -22.3077   12.1112
  5.040  -22.0355   11.2034  -21.9490   12.3944  -21.4113   12.4503  -22.4674   11.3817  -20.9834   12.5117  -22.0701   12.2263
  5.050  -21.7536   11.3440  -21.6826   12.5203  -21.1206   12.5931  -22.1652   11.5416  -20.7133   12.6747  -21.8390   12.3473
  5.060  -21.4763   11.4931  -21.4214   12.6549  -20.8344   12.7466  -21.8693   11.7118  -20.4493   12.8487  -21.6146   12.4741
  5.070  -21.2039   11.6512  -21.1657   12.7985  -20.5528   12.9115  -21.5800   11.8926  -20.1917   13.0340  -21.3968   12.6067
  5.080  -20.9364   11.8190  -20.9157   12.9517  -20.2763   13.0885  -21.2976   12.0849  -19.9411   13.2312  -21.1859   12.7453
  5.090  -20.6741   11.9971  -20.6716   13.1149  -20.0052   13.2782  -21.0227   12.2892  -19.6982   13.4410  -20.9818   12.8898
  5.100  -20.4175   12.1865  -20.4340   13.2887  -19.7402   13.4816  -20.7559   12.5062  -19.4638   13.6641  -20.7848   13.0404
  5.110  -20.1670   12.3880  -20.2034   13.4738  -19.4819   13.6995  -20.4982   12.7368  -19.2389   13.9010  -20.5949   13.1972
  5.120  -19.9235   12.6025  -19.9807   13.6708  -19.2314   13.9329  -20.2504   12.9817  -19.0247   14.1524  -20.4123   13.3604
  5.130  -19.6880   12.8311  -19.7667   13.8804  -18.9898   14.1826  -20.0140   13.2416  -18.8227   14.4190  -20.2374   13.5302
  5.140  -19.4620   13.0747  -19.5627   14.1031  -18.7586   14.4497  -19.7906   13.5173  -18.6345   14.7011  -20.0703   13.7068
  5.150  -19.2470   13.3342  -19.3700   14.3396  -18.5395   14.7350  -19.5821   13.8092  -18.4621   14.9991  -19.9115   13.8906
  5.160  -19.0453   13.6103  -19.1904   14.5901  -18.3345   15.0392  -19.3906   14.1176  -18.3077   15.3131  -19.7614   14.0818
  5.170  -18.8591   13.9034  -19.0258   14.8549  -18.1461   15.3629  -19.2188   14.4426  -18.1739   15.6428  -19.6207   14.2808
  5.180  -18.6913   14.2136  -18.8784   15.1338  -17.9770   15.7064  -19.0695   14.7837  -18.0634   15.9875  -19.4902   14.4879
  5.190  -18.5450   14.5403  -18.7506   15.4262  -17.8302   16.0695  -18.9456   15.1399  -17.9789   16.3462  -19.3707   14.7034
  5.200  -18.4232   14.8825  -18.6448   15.7311  -17.7091   16.4516  -18.8502   15.5096  -17.9233   16.7169  -19.2634   14.9273
  5.210  -18.3292   15.2381  -18.5633   16.0470  -17.6172   16.8516  -18.7864   15.8906  -17.8994   17.0975  -19.1695   15.1598
  5.220  -18.2660   15.6047  -18.5085   16.3718  -17.5582   17.2675  -18.7569   16.2798  -17.9098   17.4850  -19.0905   15.4007
  5.230  -18.2360   15.9790  -18.4823   16.7029  -17.5354   17.6968  -18.7640   16.6736  -17.9565   17.8758  -19.0279   15.6496
  5.240  -18.2413   16.3569  -18.4863   17.0373  -17.5524   18.1362  -18.8095   17.0676  -18.0411   18.2658  -18.9834   15.9059
  5.250  -18.2829   16.7342  -18.5213   17.3717  -17.6119   18.5814  -18.8941   17.4573  -18.1645   18.6506  -18.9587   16.1685
  5.260  -18.3612   17.1064  -18.5878   17.7027  -17.7164   19.0276  -19.0179   17.8377  -18.3268   19.0254  -18.9554   16.4360
  5.270  -18.4755   17.4688  -18.6856   18.0267  -17.8672   19.4696  -19.1801   18.2040  -18.5273   19.3856  -18.9750   16.7068
  5.280  -18.6244   17.8173  -18.8138   18.3404  -18.0652   19.9014  -19.3787   18.5516  -18.7644   19.7265  -19.0190   16.9788
  5.290  -18.8058   18.1480  -18.9712   18.6407  -18.3098   20.3172  -19.6113   18.8762  -19.0357   20.0440  -19.0883   17.2496
  5.300  -19.0171   18.4578  -19.1560   18.9248  -18.5996   20.7108  -19.8745   19.1743  -19.3383   20.3341  -19.1835   17.5165
  5.310  -19.2551   18.7440  -19.3663   19.1903  -18.9323   21.0766  -20.1648   19.4430  -19.6688   20.5938  -19.3051   17.7769
  5.320  -19.5167   19.0047  -19.5999   19.4352  -19.3043   21.4093  -20.4783   19.6802  -20.0232   20.8205  -19.4529   18.0277
  5.330  -19.7988   19.2385  -19.8544   19.6578  -19.7114   21.7043  -20.8109   19.8844  -20.3975   21.0124  -19.6261   18.2661
  5.340  -20.0983   19.4445  -20.1276   19.8568  -20.1488   21.9577  -21.1587   20.0549  -20.7876   21.1683  -19.8237   18.4894
  5.350  -20.4123   19.6222  -20.4171   20.0311  -20.6111   22.1667  -21.5180   20.1914  -21.1895   21.2876  -20.0444   18.6947
  5.360  -20.7381   19.7716  -20.7206   20.1801  -21.0927   22.3292  -21.8853   20.2942  -21.5992   21.3704  -20.2861   18.8799
  5.370  -21.0732   19.8926  -21.0359   20.3030  -21.5878   22.4440  -22.2575   20.3640  -22.0132   21.4170  -20.5468   19.0428
  5.380  -21.4153   19.9856  -21.3606   20.3997  -22.0909   22.5111  -22.6315   20.4015  -22.4279   21.4282  -20.8241   19.1817
  5.390  -21.7622   20.0508  -21.6927   20.4697  -22.5966   22.5308  -23.0049   20.4079  -22.8403   21.4053  -21.1153   19.2951
  5.400  -22.1120   20.0888  -22.0299   20.5133  -23.0998   22.5044  -23.3753   20.3844  -23.2477   21.3497  -21.4178   19.3820
  5.410  -22.4629   20.1000  -22.3704   20.5305  -23.5958   22.4339  -23.7406   20.3323  -23.6474   21.2628  -21.7289   19.4420
  5.420  -22.8132   20.0850  -22.7120   20.5215  -24.0805   22.3215  -24.0990   20.2531  -24.0372   21.1465  -22.0458   19.4745
  5.430  -23.1610   20.0444  -23.0528   20.4869  -24.5504   22.1699  -24.4490   20.1481  -24.4153   21.0026  -22.3658   19.4798
  5.440  -23.5048   19.9790  -23.3910   20.4272  -25.0022   21.9821  -24.7889   20.0188  -24.7799   20.8329  -22.6865   19.4582
  5.450  -23.8432   19.8895  -23.7248   20.3431  -25.4333   21.7613  -25.1176   19.8667  -25.1297   20.6394  -23.0053   19.4103
  5.460  -24.1745   19.7768  -24.0525   20.2354  -25.8418   21.5108  -25.4339   19.6933  -25.4635   20.4241  -23.3201   19.3370
  5.470  -24.4974   19.6418  -24.3726   20.1051  -26.2260   21.2339  -25.7369   19.5000  -25.7802   20.1888  -23.6288   19.2394
  5.480  -24.8106   19.4855  -24.6835   19.9533  -26.5847   20.9337  -26.0256   19.2882  -26.0791   19.9355  -23.9296   19.1187
  5.490  -25.1129   19.3090  -24.9840   19.7811  -26.9173   20.6135  -26.2993   19.0596  -26.3596   19.6660  -24.2208   18.9764
  5.500  -25.4030   19.1136  -25.2729   19.5898  -27.2232   20.2764  -26.5574   18.8155  -26.6212   19.3822  -24.5010   18.8140
  5.510  -25.6800   18.9004  -25.5490   19.3806  -27.5026   19.9251  -26.7994   18.5574  -26.8638   19.0859  -24.7691   18.6328
  5.520  -25.9429   18.6708  -25.8115   19.1550  -27.7554   19.5625  -27.0248   18.2868  -27.0871   18.7788  -25.0239   18.4346
  5.530  -26.1910   18.4261  -26.0595   18.9143  -27.9824   19.1910  -27.2334   18.0051  -27.2911   18.4625  -25.2648   18.2210
  5.540  -26.4235   18.1677  -26.2924   18.6599  -28.1839   18.8130  -27.4249   17.7136  -27.4761   18.1385  -25.4911   17.9935
  5.550  -26.6400   17.8971  -26.5098   18.3933  -28.3609   18.4304  -27.5993   17.4139  -27.6421   17.8085  -25.7024   17.7536
  5.560  -26.8400   17.6157  -26.7111   18.1160  -28.5143   18.0453  -27.7566   17.1072  -27.7896   17.4736  -25.8983   17.5029
  5.570  -27.0233   17.3249  -26.8963   17.8292  -28.6451   17.6593  -27.8969   16.7948  -27.9188   17.1354  -26.0788   17.2428
  5.580  -27.1897   17.0261  -27.0651   17.5345  -28.7544   17.2739  -28.0204   16.4779  -28.0304   16.7950  -26.2438   16.9747
  5.590  -27.3392   16.7207  -27.2175   17.2330  -28.8432   16.8903  -28.1273   16.1578  -28.1247   16.4535  -26.3933   16.6999
  5.600  -27.4720   16.4099  -27.3538   16.9260  -28.9127   16.5098  -28.2181   15.8356  -28.2025   16.1119  -26.5275   16.4196
  5.610  -27.5881   16.0951  -27.4739   16.6149  -28.9641   16.1332  -28.2932   15.5122  -28.2643   15.7713  -26.6468   16.1351
  5.620  -27.6880   15.7775  -27.5783   16.3006  -28.9985   15.7613  -28.3530   15.1887  -28.3109   15.4325  -26.7513   15.8472
  5.630  -27.7718   15.4581  -27.6673   15.9843  -29.0169   15.3950  -28.3980   14.8660  -28.3428   15.0963  -26.8416   15.5571
  5.640  -27.8402   15.1381  -27.7413   15.6670  -29.0205   15.0346  -28.4288   14.5448  -28.3607   14.7633  -26.9179   15.2656
  5.650  -27.8936   14.8184  -27.8006   15.3497  -29.0102   14.6808  -28.4461   14.2261  -28.3655   14.4342  -26.9807   14.9736
  5.660  -27.9325   14.4998  -27.8460   15.0330  -28.9870   14.3338  -28.4503   13.9103  -28.3578   14.1096  -27.0306   14.6818
  5.670  -27.9576   14.1832  -27.8778   14.7179  -28.9519   13.9940  -28.4423   13.5982  -28.3383   13.7898  -27.0680   14.3910
  5.680  -27.9694   13.8694  -27.8966   14.4051  -28.9058   13.6615  -28.4226   13.2903  -28.3077   13.4753  -27.0934   14.1017
  5.690  -27.9687   13.5589  -27.9031   14.0951  -28.8495   13.3366  -28.3919   12.9870  -28.2667   13.1665  -27.1074   13.8145
  5.700  -27.9560   13.2524  -27.8979   13.7885  -28.7837   13.0193  -28.3508   12.6888  -28.2160   12.8636  -27.1105   13.5300
  5.710  -27.9320   12.9503  -27.8815   13.4859  -28.7093   12.7096  -28.3000   12.3959  -28.1562   12.5669  -27.1032   13.2485
  5.720  -27.8975   12.6530  -27.8545   13.1876  -28.6269   12.4077  -28.2401   12.1086  -28.0879   12.2765  -27.0860   12.9705
  5.730  -27.8530   12.3610  -27.8176   12.8940  -28.5372   12.1135  -28.1717   11.8273  -28.0119   11.9926  -27.0595   12.6964
  5.740  -27.7991   12.0746  -27.7714   12.6055  -28.4407   11.8269  -28.0955   11.5521  -27.9286   11.7153  -27.0242   12.4263
  5.750  -27.7366   11.7939  -27.7163   12.3224  -28.3381   11.5480  -28.0120   11.2830  -27.8386   11.4447  -26.9806   12.1607
  5.760  -27.6661   11.5192  -27.6532   12.0448  -28.2299   11.2765  -27.9218   11.0203  -27.7425   11.1807  -26.9292   11.8996
  5.770  -27.5880   11.2506  -27.5823   11.7729  -28.1166   11.0125  -27.8254   10.7640  -27.6408   10.9234  -26.8705   11.6434
  5.780  -27.5031   10.9883  -27.5044   11.5069  -27.9987   10.7557  -27.7234   10.5140  -27.5339   10.6727  -26.8050   11.3921
  5.790  -27.4118   10.7323  -27.4200   11.2468  -27.8766   10.5062  -27.6161   10.2705  -27.4223   10.4287  -26.7330   11.1459
  5.800  -27.3147   10.4827  -27.3294   10.9928  -27.7507   10.2637  -27.5041   10.0334  -27.3065   10.1912  -26.6551   10.9049
  5.810  -27.2122   10.2395  -27.2333   10.7449  -27.6214   10.0281  -27.3879    9.8026  -27.1868    9.9603  -26.5717   10.6692
  5.820  -27.1049   10.0026  -27.1321   10.5032  -27.4890    9.7993  -27.2678    9.5781  -27.0637    9.7356  -26.4831   10.4387
  5.830  -26.9931    9.7721  -27.0261   10.2675  -27.3540    9.5770  -27.1441    9.3597  -26.9374    9.5173  -26.3899   10.2136
  5.840  -26.8774    9.5478  -26.9159   10.0378  -27.2165    9.3612  -27.0174    9.1475  -26.8083    9.3051  -26.2923    9.9938
  5.850  -26.7580    9.3297  -26.8017    9.8142  -27.0769    9.1518  -26.8879    8.9413  -26.6768    9.0990  -26.1906    9.7793
  5.860  -26.6354    9.1177  -26.6841    9.5966  -26.9355    8.9484  -26.7559    8.7410  -26.5431    8.8988  -26.0854    9.5701
  5.870  -26.5099    8.9116  -26.5633    9.3848  -26.7925    8.7511  -26.6217    8.5464  -26.4075    8.7043  -25.9768    9.3661
  5.880  -26.3818    8.7115  -26.4396    9.1788  -26.6481    8.5595  -26.4857    8.3575  -26.2703    8.5155  -25.8651    9.1673
  5.890  -26.2514    8.5171  -26.3134    8.9786  -26.5026    8.3736  -26.3480    8.1740  -26.1316    8.3322  -25.7508    8.9737
  5.900  -26.1191    8.3284  -26.1849    8.7839  -26.3561    8.1932  -26.2089    7.9960  -25.9918    8.1542  -25.6339    8.7851
  5.910  -25.9850    8.1451  -26.0544    8.5946  -26.2089    8.0182  -26.0686    7.8231  -25.8509    7.9814  -25.5149    8.6015
  5.920  -25.8495    7.9672  -25.9222    8.4107  -26.0611    7.8483  -25.9274    7.6553  -25.7093    7.8136  -25.3938    8.4227
  5.930  -25.7126    7.7946  -25.7885    8.2321  -25.9129    7.6834  -25.7853    7.4924  -25.5670    7.6508  -25.2711    8.2488
  5.940  -25.5748    7.6270  -25.6536    8.0585  -25.7644    7.5234  -25.6427    7.3344  -25.4243    7.4927  -25.1468    8.0795
  5.950  -25.4360    7.4643  -25.5175    7.8899  -25.6157    7.3681  -25.4996    7.1810  -25.2813    7.3393  -25.0211    7.9148
  5.960  -25.2966    7.3065  -25.3805    7.7262  -25.4671    7.2174  -25.3562    7.0321  -25.1380    7.1903  -24.8943    7.7546
  5.970  -25.1567    7.1533  -25.2429    7.5671  -25.3185    7.0712  -25.2126    6.8875  -24.9947    7.0457  -24.7666    7.5988
  5.980  -25.0164    7.0046  -25.1046    7.4127  -25.1701    6.9292  -25.0690    6.7472  -24.8515    6.9052  -24.6380    7.4473
  5.990  -24.8759    6.8603  -24.9660    7.2626  -25.0220    6.7913  -24.9254    6.6110  -24.7084    6.7689  -24.5087    7.2999
  6.000  -24.7353    6.7202  -24.8271    7.1169  -24.8743    6.6575  -24.7820    6.4788  -24.5655    6.6364  -24.3789    7.1565
  6.010  -24.5946    6.5843  -24.6880    6.9754  -24.7271    6.5275  -24.6389    6.3504  -24.4230    6.5078  -24.2488    7.0171
  6.020  -24.4541    6.4523  -24.5489    6.8379  -24.5804    6.4013  -24.4961    6.2257  -24.2809    6.3829  -24.1183    6.8816
  6.030  -24.3139    6.3242  -24.4099    6.7043  -24.4344    6.2788  -24.3537    6.1047  -24.1393    6.2615  -23.9877    6.7497
  6.040  -24.1739    6.1997  -24.2710    6.5746  -24.2890    6.1597  -24.2119    5.9870  -23.9983    6.1436  -23.8570    6.6215
  6.050  -24.0343    6.0789  -24.1324    6.4485  -24.1443    6.0440  -24.0706    5.8728  -23.8578    6.0290  -23.7264    6.4967
  6.060  -23.8951    5.9616  -23.9942    6.3260  -24.0004    5.9316  -23.9299    5.7618  -23.7181    5.9177  -23.5958    6.3754
  6.070  -23.7565    5.8476  -23.8563    6.2070  -23.8573    5.8224  -23.7899    5.6539  -23.5791    5.8094  -23.4655    6.2574
  6.080  -23.6185    5.7369  -23.7190    6.0913  -23.7151    5.7163  -23.6507    5.5491  -23.4408    5.7042  -23.3354    6.1426
  6.090  -23.4811    5.6293  -23.5821    5.9789  -23.5737    5.6131  -23.5122    5.4472  -23.3033    5.6019  -23.2056    6.0309
  6.100  -23.3444    5.5248  -23.4459    5.8695  -23.4333    5.5127  -23.3745    5.3482  -23.1667    5.5024  -23.0763    5.9222
  6.110  -23.2084    5.4231  -23.3104    5.7632  -23.2939    5.4151  -23.2377    5.2518  -23.0309    5.4056  -22.9474    5.8164
  6.120  -23.0732    5.3244  -23.1755    5.6599  -23.1554    5.3202  -23.1017    5.1582  -22.8960    5.3114  -22.8190    5.7135
  6.130  -22.9389    5.2283  -23.0413    5.5593  -23.0179    5.2279  -22.9666    5.0670  -22.7620    5.2198  -22.6911    5.6132
  6.140  -22.8053    5.1349  -22.9080    5.4615  -22.8814    5.1380  -22.8325    4.9784  -22.6290    5.1306  -22.5639    5.5157
  6.150  -22.6726    5.0441  -22.7754    5.3663  -22.7460    5.0506  -22.6993    4.8921  -22.4970    5.0438  -22.4373    5.4207
  6.160  -22.5408    4.9557  -22.6437    5.2737  -22.6116    4.9655  -22.5670    4.8082  -22.3659    4.9593  -22.3113    5.3282
  6.170  -22.4099    4.8697  -22.5128    5.1836  -22.4783    4.8827  -22.4357    4.7264  -22.2357    4.8770  -22.1860    5.2381
  6.180  -22.2800    4.7861  -22.3828    5.0959  -22.3460    4.8020  -22.3054    4.6469  -22.1066    4.7969  -22.0615    5.1504
  6.190  -22.1510    4.7046  -22.2537    5.0105  -22.2148    4.7234  -22.1761    4.5694  -21.9785    4.7188  -21.9377    5.0649
  6.200  -22.0229    4.6253  -22.1255    4.9273  -22.0847    4.6469  -22.0479    4.4939  -21.8514    4.6427  -21.8146    4.9816
  6.210  -21.8958    4.5481  -21.9983    4.8463  -21.9557    4.5723  -21.9206    4.4204  -21.7254    4.5686  -21.6924    4.9004
  6.220  -21.7697    4.4729  -21.8720    4.7673  -21.8278    4.4996  -21.7943    4.3487  -21.6003    4.4963  -21.5710    4.8212
  6.230  -21.6446    4.3997  -21.7467    4.6904  -21.7009    4.4288  -21.6691    4.2789  -21.4763    4.4259  -21.4504    4.7441
  6.240  -21.5205    4.3283  -21.6223    4.6155  -21.5752    4.3597  -21.5449    4.2109  -21.3533    4.3572  -21.3306    4.6689
  6.250  -21.3974    4.2588  -21.4989    4.5424  -21.4505    4.2924  -21.4217    4.1445  -21.2313    4.2902  -21.2117    4.5955
  6.260  -21.2753    4.1910  -21.3765    4.4712  -21.3269    4.2268  -21.2995    4.0798  -21.1104    4.2249  -21.0936    4.5240
  6.270  -21.1541    4.1250  -21.2550    4.4018  -21.2044    4.1627  -21.1784    4.0167  -20.9905    4.1611  -20.9764    4.4542
  6.280  -21.0340    4.0605  -21.1345    4.3341  -21.0829    4.1002  -21.0583    3.9552  -20.8716    4.0989  -20.8600    4.3861
  6.290  -20.9149    3.9977  -21.0151    4.2680  -20.9626    4.0392  -20.9392    3.8951  -20.7537    4.0382  -20.7446    4.3196
  6.300  -20.7968    3.9364  -20.8966    4.2035  -20.8433    3.9797  -20.8212    3.8365  -20.6369    3.9789  -20.6300    4.2547
  6.310  -20.6797    3.8766  -20.7790    4.1406  -20.7250    3.9216  -20.7041    3.7793  -20.5210    3.9210  -20.5163    4.1914
  6.320  -20.5636    3.8183  -20.6625    4.0793  -20.6079    3.8649  -20.5881    3.7235  -20.4062    3.8645  -20.4034    4.1296
  6.330  -20.4485    3.7614  -20.5470    4.0193  -20.4917    3.8095  -20.4730    3.6690  -20.2923    3.8093  -20.2915    4.0692
  6.340  -20.3343    3.7058  -20.4324    3.9608  -20.3766    3.7554  -20.3590    3.6157  -20.1795    3.7554  -20.1805    4.0102
  6.350  -20.2212    3.6515  -20.3188    3.9037  -20.2625    3.7025  -20.2459    3.5637  -20.0676    3.7027  -20.0703    3.9526
  6.360  -20.1090    3.5985  -20.2061    3.8479  -20.1495    3.6508  -20.1338    3.5129  -19.9567    3.6512  -19.9610    3.8963
  6.370  -19.9978    3.5467  -20.0945    3.7934  -20.0374    3.6003  -20.0227    3.4632  -19.8468    3.6008  -19.8526    3.8413
  6.380  -19.8875    3.4962  -19.9838    3.7401  -19.9264    3.5510  -19.9126    3.4147  -19.7379    3.5516  -19.7451    3.7875
  6.390  -19.7783    3.4468  -19.8740    3.6880  -19.8164    3.5027  -19.8034    3.3673  -19.6299    3.5035  -19.6384    3.7350
  6.400  -19.6699    3.3985  -19.7652    3.6371  -19.7073    3.4556  -19.6952    3.3209  -19.5228    3.4564  -19.5326    3.6836
  6.410  -19.5625    3.3513  -19.6573    3.5874  -19.5992    3.4094  -19.5880    3.2756  -19.4167    3.4104  -19.4277    3.6333
  6.420  -19.4561    3.3052  -19.5503    3.5387  -19.4921    3.3643  -19.4816    3.2312  -19.3116    3.3654  -19.3236    3.5842
  6.430  -19.3505    3.2600  -19.4443    3.4912  -19.3860    3.3201  -19.3762    3.1878  -19.2073    3.3213  -19.2204    3.5361
  6.440  -19.2459    3.2159  -19.3392    3.4446  -19.2808    3.2769  -19.2717    3.1454  -19.1039    3.2782  -19.1181    3.4890
  6.450  -19.1422    3.1728  -19.2350    3.3991  -19.1765    3.2346  -19.1682    3.1039  -19.0015    3.2359  -19.0165    3.4430
  6.460  -19.0394    3.1306  -19.1317    3.3546  -19.0731    3.1932  -19.0655    3.0632  -18.9000    3.1946  -18.9159    3.3979
  6.470  -18.9375    3.0893  -19.0293    3.3110  -18.9707    3.1527  -18.9637    3.0235  -18.7993    3.1541  -18.8160    3.3538
  6.480  -18.8364    3.0488  -18.9278    3.2683  -18.8692    3.1130  -18.8628    2.9845  -18.6995    3.1145  -18.7170    3.3107
  6.490  -18.7363    3.0093  -18.8271    3.2265  -18.7686    3.0742  -18.7628    2.9464  -18.6006    3.0757  -18.6188    3.2684
  6.500  -18.6370    2.9705  -18.7273    3.1856  -18.6688    3.0361  -18.6636    2.9090  -18.5025    3.0377  -18.5214    3.2270
  6.510  -18.5386    2.9326  -18.6284    3.1455  -18.5700    2.9988  -18.5653    2.8725  -18.4053    3.0004  -18.4248    3.1864
  6.520  -18.4410    2.8955  -18.5303    3.1063  -18.4720    2.9623  -18.4679    2.8367  -18.3089    2.9639  -18.3290    3.1467
  6.530  -18.3442    2.8591  -18.4331    3.0679  -18.3748    2.9265  -18.3712    2.8015  -18.2133    2.9281  -18.2340    3.1078
  6.540  -18.2483    2.8235  -18.3367    3.0302  -18.2786    2.8914  -18.2754    2.7672  -18.1186    2.8930  -18.1398    3.0696
  6.550  -18.1532    2.7886  -18.2411    2.9933  -18.1831    2.8570  -18.1804    2.7334  -18.0247    2.8586  -18.0464    3.0323
  6.560  -18.0589    2.7544  -18.1463    2.9572  -18.0885    2.8232  -18.0863    2.7004  -17.9315    2.8249  -17.9537    2.9956
  6.570  -17.9654    2.7208  -18.0524    2.9217  -17.9947    2.7902  -17.9929    2.6680  -17.8392    2.7918  -17.8618    2.9597
  6.580  -17.8728    2.6880  -17.9592    2.8870  -17.9017    2.7577  -17.9003    2.6362  -17.7477    2.7594  -17.7707    2.9245
  6.590  -17.7809    2.6558  -17.8668    2.8529  -17.8095    2.7259  -17.8085    2.6051  -17.6569    2.7276  -17.6803    2.8899
  6.600  -17.6897    2.6242  -17.7752    2.8195  -17.7180    2.6947  -17.7175    2.5746  -17.5669    2.6964  -17.5906    2.8560
  6.610  -17.5994    2.5932  -17.6844    2.7867  -17.6274    2.6641  -17.6272    2.5446  -17.4776    2.6657  -17.5016    2.8228
  6.620  -17.5098    2.5629  -17.5943    2.7545  -17.5375    2.6340  -17.5377    2.5152  -17.3891    2.6357  -17.4134    2.7902
  6.630  -17.4209    2.5331  -17.5050    2.7230  -17.4484    2.6045  -17.4489    2.4863  -17.3013    2.6062  -17.3259    2.7582
  6.640  -17.3328    2.5038  -17.4164    2.6920  -17.3601    2.5756  -17.3609    2.4580  -17.2143    2.5772  -17.2391    2.7268
  6.650  -17.2454    2.4752  -17.3286    2.6617  -17.2724    2.5471  -17.2736    2.4303  -17.1279    2.5487  -17.1530    2.6960
  6.660  -17.1587    2.4470  -17.2415    2.6318  -17.1855    2.5192  -17.1870    2.4030  -17.0423    2.5208  -17.0676    2.6658
  6.670  -17.0728    2.4194  -17.1551    2.6026  -17.0994    2.4918  -17.1012    2.3762  -16.9574    2.4934  -16.9829    2.6361
  6.680  -16.9875    2.3923  -17.0694    2.5738  -17.0139    2.4649  -17.0160    2.3499  -16.8732    2.4665  -16.8989    2.6069
  6.690  -16.9030    2.3657  -16.9844    2.5456  -16.9292    2.4385  -16.9315    2.3241  -16.7897    2.4400  -16.8155    2.5783
  6.700  -16.8192    2.3395  -16.9001    2.5179  -16.8451    2.4125  -16.8477    2.2988  -16.7068    2.4140  -16.7328    2.5502
  6.710  -16.7360    2.3139  -16.8165    2.4907  -16.7618    2.3870  -16.7646    2.2739  -16.6246    2.3885  -16.6508    2.5226
  6.720  -16.6535    2.2887  -16.7336    2.4640  -16.6791    2.3619  -16.6822    2.2494  -16.5431    2.3634  -16.5694    2.4955
  6.730  -16.5717    2.2639  -16.6514    2.4377  -16.5971    2.3373  -16.6004    2.2254  -16.4622    2.3387  -16.4886    2.4688
  6.740  -16.4905    2.2396  -16.5698    2.4119  -16.5158    2.3131  -16.5193    2.2018  -16.3820    2.3145  -16.4085    2.4426
  6.750  -16.4100    2.2157  -16.4888    2.3866  -16.4351    2.2893  -16.4388    2.1786  -16.3025    2.2907  -16.3290    2.4169
  6.760  -16.3301    2.1923  -16.4085    2.3617  -16.3550    2.2659  -16.3590    2.1558  -16.2235    2.2672  -16.2501    2.3916
  6.770  -16.2508    2.1692  -16.3289    2.3372  -16.2757    2.2429  -16.2798    2.1334  -16.1452    2.2442  -16.1719    2.3667
  6.780  -16.1722    2.1465  -16.2499    2.3131  -16.1969    2.2203  -16.2012    2.1113  -16.0675    2.2216  -16.0942    2.3423
  6.790  -16.0942    2.1243  -16.1715    2.2894  -16.1188    2.1980  -16.1233    2.0897  -15.9904    2.1993  -16.0172    2.3183
  6.800  -16.0168    2.1024  -16.0937    2.2662  -16.0412    2.1761  -16.0459    2.0684  -15.9139    2.1774  -15.9407    2.2947
  6.810  -15.9401    2.0808  -16.0166    2.2433  -15.9643    2.1546  -15.9692    2.0474  -15.8380    2.1558  -15.8649    2.2714
  6.820  -15.8639    2.0597  -15.9400    2.2208  -15.8880    2.1335  -15.8930    2.0268  -15.7627    2.1346  -15.7896    2.2486
  6.830  -15.7883    2.0388  -15.8640    2.1987  -15.8123    2.1126  -15.8175    2.0066  -15.6880    2.1137  -15.7149    2.2261
  6.840  -15.7133    2.0184  -15.7886    2.1769  -15.7372    2.0921  -15.7425    1.9866  -15.6138    2.0932  -15.6407    2.2040
  6.850  -15.6389    1.9982  -15.7139    2.1555  -15.6626    2.0720  -15.6681    1.9670  -15.5402    2.0730  -15.5671    2.1822
  6.860  -15.5650    1.9784  -15.6396    2.1344  -15.5887    2.0521  -15.5943    1.9477  -15.4672    2.0531  -15.4941    2.1608
  6.870  -15.4917    1.9589  -15.5660    2.1137  -15.5153    2.0326  -15.5210    1.9288  -15.3948    2.0336  -15.4216    2.1398
  6.880  -15.4190    1.9398  -15.4929    2.0933  -15.4424    2.0134  -15.4483    1.9101  -15.3228    2.0143  -15.3497    2.1191
  6.890  -15.3468    1.9209  -15.4204    2.0732  -15.3701    1.9944  -15.3761    1.8917  -15.2515    1.9953  -15.2783    2.0987
  6.900  -15.2752    1.9023  -15.3484    2.0534  -15.2984    1.9758  -15.3045    1.8736  -15.1806    1.9766  -15.2074    2.0786
  6.910  -15.2041    1.8840  -15.2769    2.0339  -15.2272    1.9574  -15.2334    1.8558  -15.1103    1.9583  -15.1370    2.0588
  6.920  -15.1335    1.8661  -15.2060    2.0148  -15.1565    1.9394  -15.1628    1.8382  -15.0405    1.9401  -15.0672    2.0394
  6.930  -15.0635    1.8483  -15.1356    1.9959  -15.0864    1.9216  -15.0928    1.8210  -14.9712    1.9223  -14.9979    2.0202
  6.940  -14.9940    1.8309  -15.0658    1.9773  -15.0168    1.9040  -15.0233    1.8040  -14.9025    1.9047  -14.9291    2.0014
  6.950  -14.9249    1.8137  -14.9965    1.9591  -14.9477    1.8868  -14.9543    1.7872  -14.8342    1.8874  -14.8608    1.9828
  6.960  -14.8564    1.7968  -14.9276    1.9410  -14.8791    1.8697  -14.8858    1.7707  -14.7665    1.8704  -14.7929    1.9645
  6.970  -14.7885    1.7802  -14.8593    1.9233  -14.8110    1.8530  -14.8178    1.7545  -14.6992    1.8536  -14.7256    1.9465
  6.980  -14.7210    1.7638  -14.7915    1.9058  -14.7435    1.8365  -14.7503    1.7385  -14.6324    1.8370  -14.6588    1.9287
  6.990  -14.6539    1.7477  -14.7242    1.8886  -14.6764    1.8202  -14.6833    1.7227  -14.5662    1.8207  -14.5924    1.9112
  7.000  -14.5874    1.7318  -14.6574    1.8716  -14.6098    1.8042  -14.6167    1.7072  -14.5003    1.8047  -14.5265    1.8940
  7.010  -14.5214    1.7161  -14.5910    1.8549  -14.5437    1.7884  -14.5507    1.6919  -14.4350    1.7888  -14.4611    1.8770
  7.020  -14.4558    1.7007  -14.5251    1.8384  -14.4780    1.7728  -14.4851    1.6768  -14.3701    1.7732  -14.3962    1.8603
  7.030  -14.3907    1.6854  -14.4598    1.8222  -14.4128    1.7574  -14.4200    1.6619  -14.3057    1.7578  -14.3317    1.8438
  7.040  -14.3261    1.6705  -14.3948    1.8062  -14.3481    1.7423  -14.3553    1.6473  -14.2418    1.7426  -14.2676    1.8275
  7.050  -14.2619    1.6557  -14.3304    1.7904  -14.2839    1.7274  -14.2911    1.6329  -14.1783    1.7277  -14.2040    1.8115
  7.060  -14.1982    1.6411  -14.2664    1.7749  -14.2201    1.7126  -14.2274    1.6186  -14.1152    1.7129  -14.1409    1.7957
  7.070  -14.1349    1.6268  -14.2028    1.7596  -14.1568    1.6981  -14.1641    1.6046  -14.0526    1.6984  -14.0782    1.7802
  7.080  -14.0721    1.6126  -14.1397    1.7444  -14.0939    1.6838  -14.1012    1.5908  -13.9904    1.6840  -14.0159    1.7648
  7.090  -14.0097    1.5987  -14.0770    1.7296  -14.0314    1.6697  -14.0388    1.5772  -13.9287    1.6699  -13.9541    1.7497
  7.100  -13.9477    1.5850  -14.0148    1.7149  -13.9694    1.6558  -13.9768    1.5637  -13.8673    1.6559  -13.8927    1.7348
  7.110  -13.8862    1.5714  -13.9530    1.7004  -13.9078    1.6421  -13.9153    1.5505  -13.8064    1.6422  -13.8317    1.7201
  7.120  -13.8251    1.5581  -13.8916    1.6861  -13.8466    1.6285  -13.8542    1.5374  -13.7460    1.6286  -13.7711    1.7056
  7.130  -13.7644    1.5449  -13.8307    1.6720  -13.7859    1.6152  -13.7934    1.5245  -13.6859    1.6152  -13.7109    1.6913
  7.140  -13.7041    1.5319  -13.7702    1.6581  -13.7255    1.6020  -13.7331    1.5118  -13.6262    1.6020  -13.6512    1.6771
  7.150  -13.6443    1.5191  -13.7101    1.6444  -13.6656    1.5890  -13.6732    1.4992  -13.5670    1.5889  -13.5918    1.6632
  7.160  -13.5848    1.5064  -13.6504    1.6309  -13.6061    1.5761  -13.6138    1.4869  -13.5081    1.5761  -13.5329    1.6495
  7.170  -13.5258    1.4940  -13.5911    1.6175  -13.5470    1.5635  -13.5547    1.4747  -13.4496    1.5634  -13.4743    1.6359
  7.180  -13.4671    1.4817  -13.5322    1.6043  -13.4883    1.5510  -13.4960    1.4626  -13.3916    1.5508  -13.4161    1.6226
  7.190  -13.4089    1.4695  -13.4737    1.5914  -13.4300    1.5387  -13.4377    1.4507  -13.3339    1.5385  -13.3583    1.6094
  7.200  -13.3510    1.4576  -13.4156    1.5785  -13.3720    1.5265  -13.3798    1.4390  -13.2766    1.5263  -13.3009    1.5964
  7.210  -13.2935    1.4458  -13.3579    1.5659  -13.3145    1.5145  -13.3223    1.4274  -13.2197    1.5142  -13.2439    1.5835
  7.220  -13.2364    1.4341  -13.3005    1.5534  -13.2573    1.5026  -13.2651    1.4160  -13.1631    1.5023  -13.1872    1.5708
  7.230  -13.1796    1.4226  -13.2436    1.5411  -13.2005    1.4909  -13.2083    1.4048  -13.1069    1.4906  -13.1310    1.5583
  7.240  -13.1233    1.4112  -13.1870    1.5289  -13.1441    1.4793  -13.1519    1.3936  -13.0511    1.4790  -13.0750    1.5460
  7.250  -13.0673    1.4000  -13.1308    1.5169  -13.0881    1.4679  -13.0959    1.3827  -12.9957    1.4676  -13.0195    1.5338
  7.260  -13.0117    1.3890  -13.0749    1.5050  -13.0324    1.4567  -13.0402    1.3718  -12.9406    1.4563  -12.9643    1.5218
  7.270  -12.9564    1.3781  -13.0195    1.4933  -12.9771    1.4455  -12.9849    1.3611  -12.8858    1.4451  -12.9095    1.5099
  7.280  -12.9015    1.3673  -12.9644    1.4818  -12.9221    1.4346  -12.9300    1.3506  -12.8315    1.4341  -12.8550    1.4982
  7.290  -12.8469    1.3567  -12.9096    1.4704  -12.8675    1.4237  -12.8754    1.3401  -12.7774    1.4232  -12.8008    1.4866
  7.300  -12.7927    1.3462  -12.8552    1.4591  -12.8132    1.4130  -12.8211    1.3299  -12.7237    1.4125  -12.7470    1.4751
  7.310  -12.7389    1.3358  -12.8011    1.4480  -12.7593    1.4024  -12.7672    1.3197  -12.6704    1.4019  -12.6936    1.4639
  7.320  -12.6853    1.3256  -12.7474    1.4370  -12.7058    1.3920  -12.7137    1.3097  -12.6174    1.3914  -12.6405    1.4527
  7.330  -12.6322    1.3155  -12.6941    1.4261  -12.6525    1.3816  -12.6604    1.2997  -12.5647    1.3810  -12.5877    1.4417
  7.340  -12.5793    1.3055  -12.6410    1.4154  -12.5996    1.3714  -12.6076    1.2900  -12.5123    1.3708  -12.5352    1.4308
  7.350  -12.5268    1.2957  -12.5883    1.4048  -12.5471    1.3614  -12.5550    1.2803  -12.4603    1.3607  -12.4831    1.4201
  7.360  -12.4746    1.2859  -12.5360    1.3944  -12.4948    1.3514  -12.5028    1.2707  -12.4086    1.3507  -12.4313    1.4095
  7.370  -12.4227    1.2763  -12.4839    1.3840  -12.4429    1.3416  -12.4509    1.2613  -12.3572    1.3409  -12.3798    1.3990
  7.380  -12.3712    1.2668  -12.4322    1.3738  -12.3913    1.3319  -12.3993    1.2520  -12.3062    1.3311  -12.3286    1.3886
  7.390  -12.3200    1.2575  -12.3808    1.3638  -12.3401    1.3223  -12.3480    1.2428  -12.2554    1.3215  -12.2778    1.3784
  7.400  -12.2691    1.2482  -12.3298    1.3538  -12.2891    1.3128  -12.2970    1.2337  -12.2050    1.3120  -12.2272    1.3683
  7.410  -12.2185    1.2391  -12.2790    1.3440  -12.2385    1.3034  -12.2464    1.2247  -12.1549    1.3026  -12.1770    1.3583
  7.420  -12.1682    1.2300  -12.2286    1.3342  -12.1881    1.2942  -12.1961    1.2159  -12.1050    1.2933  -12.1270    1.3485
  7.430  -12.1182    1.2211  -12.1784    1.3246  -12.1381    1.2850  -12.1460    1.2071  -12.0555    1.2841  -12.0774    1.3387
  7.440  -12.0685    1.2123  -12.1286    1.3151  -12.0884    1.2760  -12.0963    1.1984  -12.0063    1.2750  -12.0281    1.3291
  7.450  -12.0191    1.2036  -12.0790    1.3057  -12.0389    1.2670  -12.0469    1.1899  -11.9573    1.2661  -11.9790    1.3196
  7.460  -11.9700    1.1950  -12.0298    1.2965  -11.9898    1.2582  -11.9977    1.1814  -11.9087    1.2572  -11.9303    1.3102
  7.470  -11.9212    1.1865  -11.9809    1.2873  -11.9410    1.2494  -11.9489    1.1731  -11.8603    1.2484  -11.8818    1.3009
  7.480  -11.8727    1.1780  -11.9322    1.2782  -11.8924    1.2408  -11.9003    1.1648  -11.8123    1.2398  -11.8337    1.2917
  7.490  -11.8245    1.1697  -11.8839    1.2693  -11.8441    1.2323  -11.8521    1.1567  -11.7645    1.2312  -11.7858    1.2826
  7.500  -11.7766    1.1615  -11.8358    1.2604  -11.7962    1.2238  -11.8041    1.1486  -11.7170    1.2228  -11.7382    1.2737
  7.510  -11.7289    1.1534  -11.7880    1.2517  -11.7485    1.2155  -11.7564    1.1406  -11.6697    1.2144  -11.6908    1.2648
  7.520  -11.6816    1.1454  -11.7405    1.2430  -11.7010    1.2073  -11.7090    1.1327  -11.6228    1.2061  -11.6438    1.2560
  7.530  -11.6345    1.1375  -11.6933    1.2345  -11.6539    1.1991  -11.6618    1.1250  -11.5761    1.1979  -11.5970    1.2474
  7.540  -11.5876    1.1297  -11.6464    1.2260  -11.6070    1.1910  -11.6149    1.1173  -11.5297    1.1898  -11.5505    1.2388
  7.550  -11.5411    1.1219  -11.5997    1.2177  -11.5604    1.1831  -11.5683    1.1096  -11.4835    1.1819  -11.5042    1.2303
  7.560  -11.4948    1.1143  -11.5533    1.2094  -11.5141    1.1752  -11.5220    1.1021  -11.4377    1.1739  -11.4582    1.2220
  7.570  -11.4487    1.1067  -11.5072    1.2012  -11.4680    1.1674  -11.4759    1.0947  -11.3920    1.1661  -11.4125    1.2137
  7.580  -11.4030    1.0992  -11.4613    1.1932  -11.4222    1.1597  -11.4301    1.0873  -11.3467    1.1584  -11.3670    1.2055
  7.590  -11.3575    1.0918  -11.4157    1.1852  -11.3766    1.1521  -11.3846    1.0801  -11.3016    1.1508  -11.3218    1.1974
  7.600  -11.3122    1.0845  -11.3704    1.1773  -11.3313    1.1446  -11.3393    1.0729  -11.2567    1.1432  -11.2769    1.1894
  7.610  -11.2672    1.0773  -11.3253    1.1695  -11.2863    1.1371  -11.2942    1.0658  -11.2121    1.1357  -11.2322    1.1815
  7.620  -11.2225    1.0702  -11.2804    1.1617  -11.2415    1.1297  -11.2494    1.0588  -11.1677    1.1283  -11.1877    1.1737
  7.630  -11.1780    1.0631  -11.2359    1.1541  -11.1970    1.1225  -11.2049    1.0518  -11.1236    1.1210  -11.1435    1.1659
  7.640  -11.1337    1.0561  -11.1915    1.1465  -11.1527    1.1152  -11.1606    1.0450  -11.0798    1.1138  -11.0996    1.1583
  7.650  -11.0897    1.0492  -11.1474    1.1391  -11.1086    1.1081  -11.1166    1.0382  -11.0361    1.1066  -11.0558    1.1507
  7.660  -11.0460    1.0424  -11.1036    1.1317  -11.0648    1.1011  -11.0727    1.0315  -10.9927    1.0995  -11.0124    1.1432
  7.670  -11.0024    1.0357  -11.0600    1.1244  -11.0212    1.0941  -11.0292    1.0248  -10.9496    1.0925  -10.9691    1.1358
  7.680  -10.9591    1.0290  -11.0167    1.1171  -10.9779    1.0872  -10.9858    1.0183  -10.9067    1.0856  -10.9261    1.1285
  7.690  -10.9161    1.0224  -10.9735    1.1100  -10.9348    1.0804  -10.9427    1.0118  -10.8640    1.0788  -10.8833    1.1213
  7.700  -10.8733    1.0159  -10.9307    1.1029  -10.8919    1.0736  -10.8999    1.0053  -10.8215    1.0720  -10.8408    1.1141
  7.710  -10.8307    1.0094  -10.8880    1.0959  -10.8493    1.0670  -10.8572    0.9990  -10.7793    1.0653  -10.7984    1.1070
  7.720  -10.7883    1.0030  -10.8456    1.0890  -10.8069    1.0604  -10.8148    0.9927  -10.7373    1.0587  -10.7563    1.1000
  7.730  -10.7461    0.9967  -10.8034    1.0821  -10.7647    1.0538  -10.7726    0.9865  -10.6955    1.0521  -10.7145    1.0931
  7.740  -10.7042    0.9905  -10.7614    1.0754  -10.7227    1.0474  -10.7307    0.9804  -10.6539    1.0456  -10.6728    1.0863
  7.750  -10.6625    0.9843  -10.7197    1.0687  -10.6810    1.0410  -10.6889    0.9743  -10.6126    1.0392  -10.6314    1.0795
  7.760  -10.6210    0.9782  -10.6782    1.0620  -10.6395    1.0347  -10.6474    0.9683  -10.5715    1.0329  -10.5901    1.0728
  7.770  -10.5798    0.9722  -10.6369    1.0555  -10.5981    1.0284  -10.6061    0.9624  -10.5305    1.0266  -10.5491    1.0662
  7.780  -10.5387    0.9662  -10.5958    1.0490  -10.5570    1.0222  -10.5650    0.9565  -10.4898    1.0204  -10.5083    1.0596
  7.790  -10.4979    0.9603  -10.5549    1.0426  -10.5162    1.0161  -10.5241    0.9507  -10.4493    1.0142  -10.4678    1.0531
  7.800  -10.4572    0.9545  -10.5143    1.0362  -10.4755    1.0101  -10.4835    0.9449  -10.4090    1.0081  -10.4274    1.0467
  7.810  -10.4168    0.9487  -10.4738    1.0299  -10.4350    1.0041  -10.4430    0.9393  -10.3690    1.0021  -10.3872    1.0403
  7.820  -10.3766    0.9430  -10.4336    1.0237  -10.3947    0.9982  -10.4027    0.9336  -10.3291    0.9962  -10.3472    1.0341
  7.830  -10.3365    0.9374  -10.3936    1.0176  -10.3547    0.9923  -10.3627    0.9281  -10.2894    0.9903  -10.3075    1.0278
  7.840  -10.2967    0.9318  -10.3538    1.0115  -10.3148    0.9865  -10.3228    0.9226  -10.2499    0.9845  -10.2679    1.0217
  7.850  -10.2571    0.9263  -10.3141    1.0054  -10.2751    0.9808  -10.2832    0.9172  -10.2106    0.9787  -10.2285    1.0156
  7.860  -10.2177    0.9208  -10.2747    0.9995  -10.2357    0.9751  -10.2437    0.9118  -10.1715    0.9730  -10.1893    1.0096
  7.870  -10.1784    0.9154  -10.2355    0.9936  -10.1964    0.9695  -10.2044    0.9065  -10.1326    0.9674  -10.1504    1.0037
  7.880  -10.1394    0.9101  -10.1965    0.9878  -10.1573    0.9639  -10.1654    0.9012  -10.0939    0.9618  -10.1116    0.9978
  7.890  -10.1005    0.9048  -10.1576    0.9820  -10.1184    0.9584  -10.1265    0.8960  -10.0554    0.9563  -10.0729    0.9920
  7.900  -10.0619    0.8996  -10.1190    0.9763  -10.0797    0.9530  -10.0878    0.8909  -10.0170    0.9508  -10.0345    0.9862
  7.910  -10.0234    0.8945  -10.0806    0.9706  -10.0412    0.9476  -10.0493    0.8858   -9.9789    0.9454   -9.9963    0.9805
  7.920   -9.9851    0.8893  -10.0423    0.9650  -10.0028    0.9423  -10.0110    0.8808   -9.9409    0.9400   -9.9582    0.9749
  7.930   -9.9470    0.8843  -10.0042    0.9595   -9.9647    0.9371   -9.9728    0.8758   -9.9031    0.9348   -9.9204    0.9693
  7.940   -9.9090    0.8793   -9.9663    0.9540   -9.9267    0.9319   -9.9349    0.8709   -9.8655    0.9295   -9.8827    0.9638
  7.950   -9.8713    0.8744   -9.9286    0.9486   -9.8889    0.9267   -9.8971    0.8660   -9.8281    0.9244   -9.8451    0.9583
  7.960   -9.8337    0.8695   -9.8911    0.9432   -9.8513    0.9217   -9.8595    0.8612   -9.7908    0.9192   -9.8078    0.9529
  7.970   -9.7963    0.8647   -9.8538    0.9379   -9.8138    0.9166   -9.8221    0.8565   -9.7537    0.9142   -9.7706    0.9476
  7.980   -9.7590    0.8599   -9.8166    0.9327   -9.7765    0.9117   -9.7848    0.8518   -9.7168    0.9092   -9.7336    0.9423
  7.990   -9.7220    0.8552   -9.7796    0.9275   -9.7394    0.9067   -9.7477    0.8471   -9.6800    0.9042   -9.6968    0.9371
  8.000   -9.6851    0.8505   -9.7428    0.9224   -9.7025    0.9019   -9.7108    0.8425   -9.6434    0.8993   -9.6601    0.9319
  8.010   -9.6483    0.8459   -9.7062    0.9173   -9.6657    0.8971   -9.6740    0.8380   -9.6070    0.8945   -9.6236    0.9268
  8.020   -9.6118    0.8414   -9.6697    0.9123   -9.6291    0.8923   -9.6374    0.8335   -9.5707    0.8897   -9.5873    0.9218
  8.030   -9.5754    0.8369   -9.6334    0.9073   -9.5926    0.8876   -9.6010    0.8291   -9.5346    0.8849   -9.5511    0.9168
  8.040   -9.5391    0.8325   -9.5972    0.9024   -9.5563    0.8830   -9.5648    0.8247   -9.4987    0.8802   -9.5151    0.9118
  8.050   -9.5030    0.8281   -9.5612    0.8975   -9.5202    0.8784   -9.5287    0.8204   -9.4629    0.8756   -9.4793    0.9070
  8.060   -9.4671    0.8237   -9.5254    0.8927   -9.4842    0.8738   -9.4927    0.8161   -9.4273    0.8710   -9.4436    0.9021
  8.070   -9.4313    0.8194   -9.4898    0.8879   -9.4484    0.8693   -9.4569    0.8118   -9.3918    0.8665   -9.4080    0.8974
  8.080   -9.3956    0.8152   -9.4543    0.8832   -9.4127    0.8649   -9.4213    0.8077   -9.3565    0.8620   -9.3726    0.8926
  8.090   -9.3602    0.8110   -9.4189    0.8785   -9.3771    0.8605   -9.3858    0.8035   -9.3213    0.8576   -9.3374    0.8880
  8.100   -9.3248    0.8069   -9.3837    0.8739   -9.3418    0.8562   -9.3504    0.7995   -9.2863    0.8532   -9.3023    0.8834
  8.110   -9.2896    0.8028   -9.3487    0.8694   -9.3065    0.8519   -9.3153    0.7954   -9.2514    0.8489   -9.2673    0.8788
  8.120   -9.2546    0.7987   -9.3138    0.8649   -9.2714    0.8477   -9.2802    0.7914   -9.2166    0.8446   -9.2325    0.8743
  8.130   -9.2197    0.7948   -9.2791    0.8604   -9.2365    0.8435   -9.2453    0.7875   -9.1820    0.8404   -9.1978    0.8698
  8.140   -9.1849    0.7908   -9.2445    0.8560   -9.2017    0.8394   -9.2105    0.7836   -9.1476    0.8362   -9.1633    0.8654
  8.150   -9.1503    0.7869   -9.2101    0.8517   -9.1670    0.8353   -9.1759    0.7798   -9.1133    0.8321   -9.1289    0.8611
  8.160   -9.1158    0.7831   -9.1758    0.8473   -9.1325    0.8313   -9.1414    0.7760   -9.0791    0.8280   -9.0946    0.8568
  8.170   -9.0814    0.7793   -9.1416    0.8431   -9.0980    0.8273   -9.1071    0.7723   -9.0450    0.8240   -9.0605    0.8526
  8.180   -9.0472    0.7756   -9.1076    0.8389   -9.0638    0.8234   -9.0729    0.7686   -9.0111    0.8200   -9.0265    0.8484
  8.190   -9.0131    0.7719   -9.0737    0.8347   -9.0296    0.8195   -9.0388    0.7650   -8.9773    0.8161   -8.9927    0.8442
  8.200   -8.9791    0.7683   -9.0400    0.8306   -8.9956    0.8157   -9.0048    0.7614   -8.9436    0.8122   -8.9589    0.8402
  8.210   -8.9452    0.7647   -9.0064    0.8265   -8.9617    0.8119   -8.9710    0.7579   -8.9101    0.8084   -8.9253    0.8361
  8.220   -8.9115    0.7612   -8.9729    0.8225   -8.9279    0.8082   -8.9373    0.7544   -8.8767    0.8046   -8.8919    0.8321
  8.230   -8.8779    0.7577   -8.9396    0.8186   -8.8943    0.8045   -8.9037    0.7509   -8.8434    0.8009   -8.8585    0.8282
  8.240   -8.8444    0.7543   -8.9063    0.8146   -8.8608    0.8009   -8.8702    0.7475   -8.8102    0.7972   -8.8253    0.8243
  8.250   -8.8111    0.7509   -8.8733    0.8108   -8.8273    0.7974   -8.8369    0.7442   -8.7771    0.7936   -8.7921    0.8205
  8.260   -8.7778    0.7476   -8.8403    0.8069   -8.7940    0.7939   -8.8037    0.7409   -8.7442    0.7900   -8.7591    0.8167
  8.270   -8.7446    0.7443   -8.8075    0.8032   -8.7608    0.7904   -8.7706    0.7377   -8.7114    0.7865   -8.7262    0.8130
  8.280   -8.7116    0.7411   -8.7747    0.7994   -8.7278    0.7870   -8.7376    0.7345   -8.6786    0.7830   -8.6935    0.8093
  8.290   -8.6787    0.7379   -8.7422    0.7958   -8.6948    0.7836   -8.7047    0.7314   -8.6460    0.7796   -8.6608    0.8057
  8.300   -8.6459    0.7348   -8.7097    0.7921   -8.6619    0.7804   -8.6719    0.7283   -8.6135    0.7762   -8.6282    0.8022
  8.310   -8.6131    0.7317   -8.6773    0.7885   -8.6292    0.7771   -8.6392    0.7252   -8.5811    0.7729   -8.5958    0.7987
  8.320   -8.5805    0.7287   -8.6451    0.7850   -8.5965    0.7739   -8.6067    0.7223   -8.5488    0.7696   -8.5634    0.7952
  8.330   -8.5480    0.7257   -8.6129    0.7815   -8.5639    0.7708   -8.5742    0.7193   -8.5166    0.7664   -8.5311    0.7918
  8.340   -8.5156    0.7228   -8.5809    0.7781   -8.5315    0.7677   -8.5418    0.7165   -8.4845    0.7632   -8.4990    0.7884
  8.350   -8.4832    0.7200   -8.5490    0.7747   -8.4991    0.7647   -8.5096    0.7136   -8.4525    0.7601   -8.4669    0.7852
  8.360   -8.4510    0.7172   -8.5172    0.7713   -8.4668    0.7617   -8.4774    0.7109   -8.4206    0.7570   -8.4350    0.7819
  8.370   -8.4189    0.7144   -8.4855    0.7681   -8.4346    0.7588   -8.4453    0.7082   -8.3888    0.7540   -8.4031    0.7787
  8.380   -8.3868    0.7117   -8.4539    0.7648   -8.4025    0.7559   -8.4133    0.7055   -8.3570    0.7510   -8.3713    0.7756
  8.390   -8.3548    0.7091   -8.4224    0.7616   -8.3705    0.7531   -8.3814    0.7029   -8.3254    0.7481   -8.3396    0.7725
  8.400   -8.3229    0.7065   -8.3909    0.7585   -8.3385    0.7504   -8.3496    0.7003   -8.2938    0.7453   -8.3080    0.7695
  8.410   -8.2911    0.7040   -8.3596    0.7554   -8.3066    0.7477   -8.3178    0.6978   -8.2623    0.7425   -8.2764    0.7666
  8.420   -8.2593    0.7016   -8.3284    0.7523   -8.2748    0.7451   -8.2862    0.6954   -8.2309    0.7398   -8.2450    0.7637
  8.430   -8.2277    0.6992   -8.2973    0.7493   -8.2431    0.7425   -8.2546    0.6930   -8.1996    0.7371   -8.2136    0.7608
  8.440   -8.1960    0.6969   -8.2662    0.7464   -8.2115    0.7400   -8.2231    0.6907   -8.1683    0.7345   -8.1823    0.7581
  8.450   -8.1645    0.6946   -8.2353    0.7435   -8.1799    0.7376   -8.1916    0.6885   -8.1372    0.7319   -8.1510    0.7553
  8.460   -8.1330    0.6924   -8.2044    0.7407   -8.1484    0.7352   -8.1603    0.6863   -8.1060    0.7294   -8.1199    0.7527
  8.470   -8.1016    0.6903   -8.1736    0.7379   -8.1169    0.7329   -8.1290    0.6842   -8.0750    0.7270   -8.0887    0.7501
  8.480   -8.0702    0.6882   -8.1429    0.7352   -8.0855    0.7307   -8.0977    0.6821   -8.0440    0.7246   -8.0577    0.7476
  8.490   -8.0389    0.6862   -8.1123    0.7325   -8.0541    0.7286   -8.0666    0.6801   -8.0130    0.7223   -8.0267    0.7451
  8.500   -8.0077    0.6843   -8.0817    0.7299   -8.0228    0.7265   -8.0354    0.6782   -7.9821    0.7201   -7.9958    0.7427
  8.510   -7.9765    0.6824   -8.0513    0.7273   -7.9916    0.7245   -8.0044    0.6763   -7.9513    0.7179   -7.9649    0.7404
  8.520   -7.9453    0.6806   -8.0208    0.7248   -7.9604    0.7225   -7.9733    0.6745   -7.9205    0.7158   -7.9341    0.7382
  8.530   -7.9142    0.6789   -7.9905    0.7224   -7.9292    0.7207   -7.9424    0.6728   -7.8898    0.7138   -7.9033    0.7360
  8.540   -7.8831    0.6773   -7.9602    0.7200   -7.8980    0.7189   -7.9114    0.6712   -7.8591    0.7118   -7.8725    0.7339
  8.550   -7.8520    0.6757   -7.9300    0.7177   -7.8669    0.7172   -7.8805    0.6696   -7.8284    0.7099   -7.8418    0.7318
  8.560   -7.8210    0.6743   -7.8998    0.7154   -7.8359    0.7156   -7.8497    0.6681   -7.7978    0.7081   -7.8112    0.7299
  8.570   -7.7900    0.6729   -7.8697    0.7132   -7.8048    0.7140   -7.8189    0.6667   -7.7672    0.7064   -7.7805    0.7280
  8.580   -7.7590    0.6716   -7.8397    0.7110   -7.7738    0.7126   -7.7881    0.6654   -7.7366    0.7048   -7.7499    0.7262
  8.590   -7.7280    0.6704   -7.8097    0.7090   -7.7428    0.7113   -7.7573    0.6642   -7.7061    0.7032   -7.7193    0.7245
  8.600   -7.6971    0.6693   -7.7797    0.7070   -7.7117    0.7100   -7.7266    0.6631   -7.6756    0.7017   -7.6887    0.7229
  8.610   -7.6661    0.6683   -7.7498    0.7050   -7.6808    0.7089   -7.6958    0.6620   -7.6451    0.7003   -7.6582    0.7214
  8.620   -7.6352    0.6674   -7.7199    0.7032   -7.6498    0.7078   -7.6651    0.6611   -7.6146    0.6990   -7.6276    0.7200
  8.630   -7.6042    0.6666   -7.6901    0.7014   -7.6188    0.7069   -7.6344    0.6602   -7.5841    0.6978   -7.5971    0.7186
  8.640   -7.5733    0.6659   -7.6603    0.6996   -7.5877    0.7060   -7.6037    0.6595   -7.5536    0.6967   -7.5666    0.7174
  8.650   -7.5423    0.6653   -7.6305    0.6980   -7.5567    0.7053   -7.5730    0.6589   -7.5231    0.6957   -7.5360    0.7163
  8.660   -7.5113    0.6649   -7.6007    0.6964   -7.5257    0.7047   -7.5423    0.6584   -7.4925    0.6948   -7.5055    0.7152
  8.670   -7.4803    0.6646   -7.5710    0.6950   -7.4946    0.7043   -7.5116    0.6580   -7.4620    0.6940   -7.4749    0.7143
  8.680   -7.4493    0.6644   -7.5413    0.6935   -7.4635    0.7040   -7.4808    0.6577   -7.4315    0.6934   -7.4443    0.7135
  8.690   -7.4182    0.6643   -7.5116    0.6922   -7.4324    0.7038   -7.4501    0.6575   -7.4009    0.6928   -7.4137    0.7129
  8.700   -7.3871    0.6644   -7.4819    0.6910   -7.4012    0.7037   -7.4193    0.6575   -7.3703    0.6924   -7.3831    0.7123
  8.710   -7.3559    0.6646   -7.4523    0.6899   -7.3700    0.7038   -7.3885    0.6577   -7.3397    0.6921   -7.3524    0.7119
  8.720   -7.3247    0.6650   -7.4226    0.6888   -7.3387    0.7041   -7.3576    0.6579   -7.3090    0.6920   -7.3217    0.7117
  8.730   -7.2934    0.6655   -7.3929    0.6879   -7.3074    0.7045   -7.3267    0.6584   -7.2783    0.6920   -7.2910    0.7115
  8.740   -7.2620    0.6662   -7.3632    0.6871   -7.2760    0.7051   -7.2957    0.6589   -7.2475    0.6921   -7.2601    0.7116
  8.750   -7.2306    0.6671   -7.3335    0.6863   -7.2445    0.7059   -7.2647    0.6597   -7.2166    0.6924   -7.2293    0.7118
  8.760   -7.1991    0.6682   -7.3038    0.6857   -7.2130    0.7069   -7.2336    0.6606   -7.1857    0.6929   -7.1983    0.7121
  8.770   -7.1675    0.6695   -7.2741    0.6852   -7.1813    0.7081   -7.2025    0.6618   -7.1547    0.6936   -7.1673    0.7127
  8.780   -7.1358    0.6710   -7.2443    0.6848   -7.1496    0.7095   -7.1713    0.6631   -7.1236    0.6944   -7.1362    0.7134
  8.790   -7.1040    0.6728   -7.2145    0.6846   -7.1177    0.7111   -7.1400    0.6646   -7.0925    0.6954   -7.1050    0.7143
  8.800   -7.0720    0.6748   -7.1847    0.6845   -7.0857    0.7130   -7.1085    0.6664   -7.0612    0.6967   -7.0737    0.7154
  8.810   -7.0400    0.6770   -7.1548    0.6845   -7.0536    0.7151   -7.0770    0.6684   -7.0298    0.6982   -7.0423    0.7168
  8.820   -7.0078    0.6795   -7.1249    0.6846   -7.0214    0.7175   -7.0454    0.6706   -6.9983    0.6999   -7.0107    0.7184
  8.830   -6.9754    0.6823   -7.0949    0.6849   -6.9890    0.7202   -7.0137    0.6731   -6.9667    0.7018   -6.9791    0.7202
  8.840   -6.9429    0.6854   -7.0649    0.6854   -6.9564    0.7232   -6.9818    0.6759   -6.9349    0.7040   -6.9473    0.7223
  8.850   -6.9103    0.6888   -7.0348    0.6861   -6.9237    0.7265   -6.9498    0.6790   -6.9030    0.7065   -6.9154    0.7247
  8.860   -6.8774    0.6925   -7.0046    0.6869   -6.8909    0.7302   -6.9177    0.6824   -6.8709    0.7093   -6.8833    0.7274
  8.870   -6.8444    0.6967   -6.9743    0.6879   -6.8578    0.7343   -6.8854    0.6862   -6.8387    0.7124   -6.8510    0.7304
  8.880   -6.8112    0.7012   -6.9439    0.6891   -6.8245    0.7387   -6.8530    0.6903   -6.8063    0.7158   -6.8186    0.7337
  8.890   -6.7778    0.7061   -6.9135    0.6905   -6.7911    0.7436   -6.8203    0.6948   -6.7737    0.7196   -6.7859    0.7374
  8.900   -6.7441    0.7115   -6.8829    0.6921   -6.7574    0.7490   -6.7875    0.6997   -6.7408    0.7238   -6.7531    0.7415
  8.910   -6.7102    0.7174   -6.8522    0.6939   -6.7235    0.7548   -6.7545    0.7050   -6.7078    0.7284   -6.7201    0.7460
  8.920   -6.6761    0.7239   -6.8214    0.6960   -6.6893    0.7612   -6.7214    0.7108   -6.6746    0.7335   -6.6868    0.7510
  8.930   -6.6417    0.7308   -6.7904    0.6984   -6.6549    0.7682   -6.6880    0.7172   -6.6411    0.7390   -6.6534    0.7564
  8.940   -6.6070    0.7384   -6.7593    0.7010   -6.6203    0.7757   -6.6544    0.7241   -6.6074    0.7451   -6.6196    0.7623
  8.950   -6.5721    0.7467   -6.7281    0.7039   -6.5854    0.7840   -6.6205    0.7315   -6.5734    0.7517   -6.5857    0.7688
  8.960   -6.5369    0.7556   -6.6967    0.7072   -6.5502    0.7929   -6.5865    0.7396   -6.5392    0.7589   -6.5514    0.7759
  8.970   -6.5014    0.7654   -6.6651    0.7108   -6.5147    0.8026   -6.5522    0.7484   -6.5047    0.7667   -6.5169    0.7837
  8.980   -6.4657    0.7759   -6.6333    0.7147   -6.4790    0.8132   -6.5177    0.7580   -6.4699    0.7753   -6.4821    0.7921
  8.990   -6.4296    0.7874   -6.6014    0.7190   -6.4429    0.8247   -6.4830    0.7683   -6.4348    0.7846   -6.4470    0.8014
  9.000   -6.3932    0.7998   -6.5692    0.7237   -6.4066    0.8371   -6.4480    0.7795   -6.3995    0.7947   -6.4117    0.8114
  9.010   -6.3565    0.8133   -6.5368    0.7288   -6.3700    0.8506   -6.4128    0.7916   -6.3638    0.8057   -6.3760    0.8223
  9.020   -6.3195    0.8280   -6.5043    0.7344   -6.3331    0.8653   -6.3774    0.8048   -6.3278    0.8177   -6.3400    0.8342
  9.030   -6.2823    0.8439   -6.4714    0.7406   -6.2960    0.8813   -6.3417    0.8190   -6.2916    0.8307   -6.3038    0.8471
  9.040   -6.2448    0.8611   -6.4383    0.7472   -6.2586    0.8986   -6.3059    0.8345   -6.2550    0.8449   -6.2673    0.8612
  9.050   -6.2070    0.8799   -6.4050    0.7544   -6.2211    0.9175   -6.2699    0.8512   -6.2182    0.8604   -6.2305    0.8765
  9.060   -6.1691    0.9003   -6.3714    0.7623   -6.1833    0.9379   -6.2338    0.8694   -6.1811    0.8771   -6.1934    0.8932
  9.070   -6.1310    0.9225   -6.3375    0.7708   -6.1455    0.9602   -6.1976    0.8890   -6.1438    0.8954   -6.1561    0.9114
  9.080   -6.0928    0.9466   -6.3034    0.7800   -6.1076    0.9844   -6.1614    0.9104   -6.1063    0.9153   -6.1187    0.9312
  9.090   -6.0546    0.9728   -6.2689    0.7900   -6.0698    1.0107   -6.1253    0.9335   -6.0688    0.9370   -6.0811    0.9528
  9.100   -6.0165    1.0013   -6.2342    0.8009   -6.0321    1.0393   -6.0893    0.9586   -6.0311    0.9606   -6.0435    0.9762
  9.110   -5.9787    1.0324   -6.1992    0.8127   -5.9947    1.0704   -6.0535    0.9858   -5.9935    0.9863   -6.0059    1.0018
  9.120   -5.9412    1.0662   -6.1639    0.8255   -5.9579    1.1042   -6.0182    1.0154   -5.9561    1.0142   -5.9685    1.0297
  9.130   -5.9044    1.1029   -6.1283    0.8393   -5.9217    1.1409   -5.9835    1.0474   -5.9189    1.0447   -5.9315    1.0600
  9.140   -5.8684    1.1428   -6.0924    0.8544   -5.8865    1.1808   -5.9496    1.0820   -5.8823    1.0779   -5.8949    1.0931
  9.150   -5.8337    1.1862   -6.0562    0.8707   -5.8526    1.2241   -5.9167    1.1195   -5.8464    1.1140   -5.8590    1.1291
  9.160   -5.8005    1.2333   -6.0198    0.8884   -5.8203    1.2709   -5.8853    1.1600   -5.8114    1.1532   -5.8241    1.1682
  9.170   -5.7693    1.2844   -5.9831    0.9076   -5.7902    1.3216   -5.8556    1.2037   -5.7779    1.1958   -5.7906    1.2106
  9.180   -5.7407    1.3396   -5.9463    0.9285   -5.7628    1.3763   -5.8281    1.2507   -5.7460    1.2420   -5.7589    1.2566
  9.190   -5.7153    1.3991   -5.9094    0.9511   -5.7387    1.4351   -5.8034    1.3011   -5.7165    1.2919   -5.7294    1.3064
  9.200   -5.6939    1.4630   -5.8724    0.9757   -5.7187    1.4980   -5.7819    1.3549   -5.6897    1.3457   -5.7028    1.3600
  9.210   -5.6774    1.5313   -5.8354    1.0025   -5.7035    1.5651   -5.7644    1.4122   -5.6665    1.4034   -5.6796    1.4176
  9.220   -5.6667    1.6039   -5.7986    1.0316   -5.6943    1.6360   -5.7517    1.4727   -5.6475    1.4651   -5.6607    1.4791
  9.230   -5.6630    1.6805   -5.7620    1.0632   -5.6919    1.7105   -5.7445    1.5361   -5.6336    1.5306   -5.6469    1.5444
  9.240   -5.6674    1.7604   -5.7259    1.0976   -5.6975    1.7878   -5.7436    1.6019   -5.6258    1.5995   -5.6391    1.6131
  9.250   -5.6811    1.8428   -5.6904    1.1349   -5.7120    1.8671   -5.7498    1.6695   -5.6249    1.6713   -5.6384    1.6846
  9.260   -5.7052    1.9265   -5.6558    1.1755   -5.7366    1.9472   -5.7640    1.7378   -5.6320    1.7452   -5.6456    1.7583
  9.270   -5.7408    2.0099   -5.6224    1.2195   -5.7719    2.0266   -5.7867    1.8057   -5.6479    1.8201   -5.6616    1.8329
  9.280   -5.7885    2.0910   -5.5907    1.2673   -5.8186    2.1034   -5.8183    1.8718   -5.6734    1.8947   -5.6871    1.9072
  9.290   -5.8488    2.1676   -5.5610    1.3190   -5.8768    2.1754   -5.8588    1.9346   -5.7088    1.9673   -5.7226    1.9795
  9.300   -5.9213    2.2372   -5.5340    1.3749   -5.9461    2.2405   -5.9080    1.9922   -5.7543    2.0362   -5.7681    2.0481
  9.310   -6.0052    2.2970   -5.5102    1.4351   -6.0257    2.2964   -5.9652    2.0431   -5.8094    2.0995   -5.8233    2.1109
  9.320   -6.0990    2.3447   -5.4905    1.4998   -6.1138    2.3409   -6.0291    2.0858   -5.8732    2.1551   -5.8871    2.1662
  9.330   -6.2002    2.3782   -5.4756    1.5689   -6.2085    2.3724   -6.0982    2.1191   -5.9444    2.2017   -5.9582    2.2123
  9.340   -6.3060    2.3961   -5.4667    1.6424   -6.3072    2.3898   -6.1706    2.1423   -6.0212    2.2378   -6.0349    2.2480
  9.350   -6.4133    2.3976   -5.4648    1.7198   -6.4071    2.3925   -6.2445    2.1552   -6.1014    2.2629   -6.1150    2.2727
  9.360   -6.5188    2.3829   -5.4710    1.8007   -6.5055    2.3808   -6.3178    2.1580   -6.1831    2.2769   -6.1965    2.2862
  9.370   -6.6195    2.3532   -5.4867    1.8841   -6.5999    2.3557   -6.3891    2.1516   -6.2643    2.2801   -6.2775    2.2891
  9.380   -6.7129    2.3102   -5.5129    1.9690   -6.6883    2.3186   -6.4571    2.1370   -6.3434    2.2736   -6.3564    2.2820
  9.390   -6.7971    2.2561   -5.5508    2.0538   -6.7689    2.2714   -6.5209    2.1155   -6.4193    2.2582   -6.4319    2.2663
  9.400   -6.8709    2.1933   -5.6011    2.1365   -6.8409    2.2159   -6.5802    2.0883   -6.4911    2.2353   -6.5034    2.2431
  9.410   -6.9340    2.1242   -5.6644    2.2149   -6.9037    2.1542   -6.6350    2.0565   -6.5586    2.2060   -6.5704    2.2134
  9.420   -6.9863    2.0509   -5.7404    2.2863   -6.9574    2.0879   -6.6854    2.0209   -6.6216    2.1711   -6.6330    2.1783
  9.430   -7.0284    1.9754   -5.8285    2.3481   -7.0022    2.0186   -6.7317    1.9821   -6.6802    2.1314   -6.6911    2.1383
  9.440   -7.0610    1.8990   -5.9272    2.3976   -7.0386    1.9476   -6.7743    1.9404   -6.7344    2.0871   -6.7449    2.0939
  9.450   -7.0850    1.8230   -6.0343    2.4325   -7.0672    1.8757   -6.8133    1.8959   -6.7842    2.0387   -6.7942    2.0454
  9.460   -7.1014    1.7482   -6.1470    2.4510   -7.0884    1.8038   -6.8486    1.8486   -6.8294    1.9863   -6.8389    1.9930
  9.470   -7.1109    1.6750   -6.2619    2.4523   -7.1029    1.7324   -6.8801    1.7986   -6.8697    1.9303   -6.8788    1.9369
  9.480   -7.1143    1.6040   -6.3758    2.4360   -7.1112    1.6622   -6.9076    1.7461   -6.9047    1.8709   -6.9134    1.8776
  9.490   -7.1122    1.5353   -6.4851    2.4030   -7.1137    1.5934   -6.9306    1.6913   -6.9340    1.8087   -6.9423    1.8155
  9.500   -7.1054    1.4692   -6.5870    2.3550   -7.1110    1.5265   -6.9488    1.6346   -6.9572    1.7444   -6.9652    1.7514
  9.510   -7.0942    1.4059   -6.6790    2.2939   -7.1034    1.4619   -6.9621    1.5767   -6.9742    1.6788   -6.9819    1.6859
  9.520   -7.0793    1.3455   -6.7596    2.2225   -7.0914    1.3997   -6.9702    1.5181   -6.9850    1.6126   -6.9924    1.6199
  9.530   -7.0610    1.2880   -6.8277    2.1434   -7.0756    1.3403   -6.9732    1.4595   -6.9897    1.5468   -6.9969    1.5543
  9.540   -7.0399    1.2335   -6.8832    2.0592   -7.0564    1.2837   -6.9714    1.4017   -6.9887    1.4821   -6.9956    1.4897
  9.550   -7.0162    1.1820   -6.9264    1.9723   -7.0342    1.2302   -6.9649    1.3450   -6.9823    1.4191   -6.9891    1.4269
  9.560   -6.9905    1.1336   -6.9579    1.8846   -7.0096    1.1797   -6.9543    1.2901   -6.9711    1.3583   -6.9778    1.3663
  9.570   -6.9631    1.0880   -6.9787    1.7978   -6.9829    1.1322   -6.9399    1.2373   -6.9558    1.3002   -6.9624    1.3083
  9.580   -6.9343    1.0454   -6.9900    1.7132   -6.9545    1.0878   -6.9222    1.1868   -6.9368    1.2449   -6.9433    1.2533
  9.590   -6.9044    1.0054   -6.9929    1.6318   -6.9249    1.0462   -6.9018    1.1389   -6.9148    1.1928   -6.9213    1.2012
  9.600   -6.8736    0.9681   -6.9887    1.5541   -6.8943    1.0074   -6.8789    1.0936   -6.8903    1.1437   -6.8967    1.1523
  9.610   -6.8423    0.9332   -6.9785    1.4805   -6.8629    0.9712   -6.8542    1.0509   -6.8637    1.0977   -6.8701    1.1064
  9.620   -6.8105    0.9007   -6.9631    1.4112   -6.8310    0.9374   -6.8279    1.0108   -6.8356    1.0546   -6.8419    1.0634
  9.630   -6.7786    0.8703   -6.9437    1.3463   -6.7988    0.9060   -6.8003    0.9732   -6.8062    1.0145   -6.8125    1.0234
  9.640   -6.7465    0.8420   -6.9208    1.2857   -6.7665    0.8767   -6.7718    0.9380   -6.7758    0.9771   -6.7822    0.9860
  9.650   -6.7144    0.8156   -6.8953    1.2292   -6.7342    0.8494   -6.7426    0.9051   -6.7448    0.9422   -6.7512    0.9512
  9.660   -6.6824    0.7909   -6.8676    1.1767   -6.7019    0.8239   -6.7129    0.8744   -6.7134    0.9098   -6.7197    0.9188
  9.670   -6.6506    0.7678   -6.8383    1.1279   -6.6698    0.8002   -6.6828    0.8457   -6.6817    0.8796   -6.6880    0.8887
  9.680   -6.6191    0.7462   -6.8078    1.0826   -6.6380    0.7780   -6.6526    0.8188   -6.6499    0.8514   -6.6563    0.8606
  9.690   -6.5878    0.7260   -6.7763    1.0406   -6.6064    0.7572   -6.6223    0.7937   -6.6181    0.8252   -6.6245    0.8344
  9.700   -6.5569    0.7070   -6.7443    1.0016   -6.5752    0.7378   -6.5920    0.7703   -6.5865    0.8008   -6.5928    0.8100
  9.710   -6.5263    0.6892   -6.7118    0.9654   -6.5443    0.7196   -6.5619    0.7483   -6.5550    0.7780   -6.5614    0.7872
  9.720   -6.4961    0.6725   -6.6792    0.9317   -6.5138    0.7025   -6.5319    0.7278   -6.5238    0.7567   -6.5301    0.7659
  9.730   -6.4663    0.6568   -6.6465    0.9005   -6.4837    0.6864   -6.5021    0.7085   -6.4929    0.7367   -6.4992    0.7460
  9.740   -6.4369    0.6420   -6.6138    0.8714   -6.4540    0.6713   -6.4727    0.6904   -6.4623    0.7181   -6.4686    0.7274
  9.750   -6.4078    0.6281   -6.5813    0.8443   -6.4248    0.6571   -6.4434    0.6734   -6.4321    0.7006   -6.4384    0.7099
  9.760   -6.3792    0.6149   -6.5490    0.8190   -6.3959    0.6436   -6.4146    0.6574   -6.4022    0.6842   -6.4086    0.6935
  9.770   -6.3509    0.6025   -6.5170    0.7954   -6.3674    0.6309   -6.3860    0.6424   -6.3728    0.6687   -6.3791    0.6780
  9.780   -6.3231    0.5908   -6.4854    0.7734   -6.3394    0.6190   -6.3578    0.6282   -6.3437    0.6542   -6.3501    0.6635
  9.790   -6.2956    0.5796   -6.4541    0.7527   -6.3117    0.6076   -6.3299    0.6148   -6.3151    0.6405   -6.3214    0.6498
  9.800   -6.2686    0.5691   -6.4232    0.7334   -6.2845    0.5968   -6.3024    0.6022   -6.2868    0.6276   -6.2932    0.6369
  9.810   -6.2418    0.5590   -6.3927    0.7153   -6.2576    0.5866   -6.2752    0.5902   -6.2590    0.6154   -6.2653    0.6247
  9.820   -6.2155    0.5495   -6.3626    0.6983   -6.2311    0.5769   -6.2484    0.5789   -6.2315    0.6039   -6.2379    0.6131
  9.830   -6.1895    0.5404   -6.3329    0.6822   -6.2050    0.5677   -6.2219    0.5682   -6.2045    0.5930   -6.2108    0.6022
  9.840   -6.1639    0.5318   -6.3037    0.6672   -6.1792    0.5589   -6.1958    0.5580   -6.1778    0.5826   -6.1842    0.5918
  9.850   -6.1386    0.5236   -6.2749    0.6530   -6.1538    0.5505   -6.1700    0.5483   -6.1515    0.5728   -6.1579    0.5820
  9.860   -6.1137    0.5157   -6.2465    0.6395   -6.1287    0.5425   -6.1445    0.5391   -6.1256    0.5634   -6.1319    0.5726
  9.870   -6.0891    0.5082   -6.2185    0.6268   -6.1039    0.5348   -6.1194    0.5303   -6.1000    0.5545   -6.1064    0.5637
  9.880   -6.0648    0.5010   -6.1909    0.6148   -6.0795    0.5275   -6.0946    0.5219   -6.0748    0.5460   -6.0811    0.5552
  9.890   -6.0408    0.4941   -6.1638    0.6035   -6.0554    0.5205   -6.0701    0.5139   -6.0499    0.5380   -6.0562    0.5471
  9.900   -6.0171    0.4875   -6.1370    0.5927   -6.0316    0.5138   -6.0459    0.5063   -6.0253    0.5302   -6.0317    0.5393
  9.910   -5.9936    0.4812   -6.1107    0.5824   -6.0081    0.5073   -6.0220    0.4990   -6.0011    0.5229   -6.0075    0.5319
  9.920   -5.9705    0.4751   -6.0847    0.5727   -5.9848    0.5011   -5.9984    0.4920   -5.9772    0.5158   -5.9835    0.5248
  9.930   -5.9476    0.4693   -6.0590    0.5634   -5.9619    0.4952   -5.9750    0.4853   -5.9536    0.5090   -5.9599    0.5180
  9.940   -5.9250    0.4636   -6.0338    0.5546   -5.9392    0.4894   -5.9520    0.4789   -5.9303    0.5025   -5.9366    0.5115
  9.950   -5.9027    0.4582   -6.0089    0.5462   -5.9167    0.4839   -5.9292    0.4727   -5.9073    0.4963   -5.9136    0.5053
  9.960   -5.8806    0.4530   -5.9843    0.5381   -5.8946    0.4786   -5.9067    0.4668   -5.8845    0.4903   -5.8908    0.4993
  9.970   -5.8588    0.4480   -5.9600    0.5304   -5.8726    0.4735   -5.8844    0.4611   -5.8620    0.4846   -5.8683    0.4935
  9.980   -5.8372    0.4431   -5.9361    0.5231   -5.8510    0.4685   -5.8624    0.4556   -5.8398    0.4790   -5.8461    0.4879
  9.990   -5.8158    0.4384   -5.9125    0.5160   -5.8295    0.4637   -5.8406    0.4504   -5.8179    0.4737   -5.8242    0.4826
 10.000   -5.7946    0.4339   -5.8891    0.5093   -5.8083    0.4591   -5.8191    0.4453   -5.7961    0.4686   -5.8024    0.4774
