# Macroscopic dielectric function obtained with the BS equation.
#  RPA L0 with KS energies and KS wavefunctions     LOCAL FIELD EFFECTS INCLUDED
# RESONANT-ONLY calculation
# Coulomb term constructed with full W(G1,G2)
# Scissor operator energy =  0.8000 [eV]
# Tolerance = -0.0010 0.0000
# npweps  = 113
# npwwfn  = 283
# nbands  = 8
# loband  = 2
# nkibz   = 3
# nkbz    = 8
# Lorentzian broadening =  0.0001 [eV]
# List of q-points for the optical limit:
# q =  0.938821, 0.000000, 0.000000, [Reduced coords] 
# q =  0.000000, 0.938821, 0.000000, [Reduced coords] 
# q =  0.000000, 0.000000, 0.938821, [Reduced coords] 
# q =  0.000000, 0.813043, 0.813043, [Reduced coords] 
# q =  0.813043, 0.000000, 0.813043, [Reduced coords] 
# q =  0.813043, 0.813043, 0.000000, [Reduced coords] 
# omega [eV]    RE(eps(q=1)) IM(eps(q=1) RE(eps(q=2) ) ... 
  0.000   57.5963    0.0000   57.4430    0.0000   57.4575    0.0000   57.5296    0.0000   57.6798    0.0000   57.6827    0.0000
  0.010   57.5970    0.0215   57.4437    0.0229   57.4581    0.0228   57.5302    0.0215   57.6804    0.0231   57.6833    0.0231
  0.020   57.5988    0.0430   57.4455    0.0457   57.4599    0.0457   57.5320    0.0430   57.6823    0.0462   57.6852    0.0463
  0.030   57.6019    0.0646   57.4486    0.0686   57.4630    0.0685   57.5351    0.0645   57.6854    0.0693   57.6883    0.0695
  0.040   57.6062    0.0861   57.4529    0.0915   57.4673    0.0914   57.5395    0.0860   57.6897    0.0925   57.6926    0.0926
  0.050   57.6118    0.1076   57.4584    0.1144   57.4728    0.1142   57.5450    0.1075   57.6953    0.1156   57.6982    0.1158
  0.060   57.6186    0.1292   57.4651    0.1373   57.4796    0.1371   57.5518    0.1290   57.7022    0.1388   57.7050    0.1390
  0.070   57.6267    0.1508   57.4731    0.1602   57.4876    0.1600   57.5599    0.1506   57.7102    0.1619   57.7131    0.1622
  0.080   57.6359    0.1724   57.4823    0.1831   57.4968    0.1829   57.5691    0.1721   57.7196    0.1851   57.7224    0.1854
  0.090   57.6465    0.1940   57.4928    0.2061   57.5072    0.2059   57.5796    0.1937   57.7301    0.2083   57.7330    0.2087
  0.100   57.6583    0.2156   57.5045    0.2291   57.5189    0.2288   57.5914    0.2153   57.7419    0.2316   57.7448    0.2320
  0.110   57.6713    0.2373   57.5174    0.2521   57.5318    0.2518   57.6044    0.2370   57.7550    0.2549   57.7579    0.2553
  0.120   57.6855    0.2590   57.5315    0.2752   57.5460    0.2749   57.6187    0.2587   57.7693    0.2782   57.7722    0.2787
  0.130   57.7011    0.2807   57.5469    0.2983   57.5614    0.2980   57.6342    0.2804   57.7849    0.3015   57.7877    0.3020
  0.140   57.7178    0.3025   57.5635    0.3214   57.5780    0.3211   57.6509    0.3021   57.8017    0.3249   57.8046    0.3255
  0.150   57.7358    0.3243   57.5814    0.3446   57.5959    0.3442   57.6689    0.3239   57.8198    0.3483   57.8226    0.3489
  0.160   57.7551    0.3462   57.6005    0.3678   57.6150    0.3674   57.6882    0.3458   57.8391    0.3718   57.8420    0.3725
  0.170   57.7757    0.3681   57.6209    0.3911   57.6354    0.3907   57.7087    0.3676   57.8597    0.3953   57.8626    0.3960
  0.180   57.7975    0.3901   57.6425    0.4144   57.6570    0.4139   57.7304    0.3896   57.8816    0.4189   57.8844    0.4196
  0.190   57.8205    0.4121   57.6654    0.4378   57.6799    0.4373   57.7535    0.4115   57.9047    0.4425   57.9076    0.4433
  0.200   57.8448    0.4341   57.6895    0.4612   57.7040    0.4607   57.7778    0.4336   57.9291    0.4662   57.9320    0.4671
  0.210   57.8704    0.4563   57.7149    0.4847   57.7294    0.4842   57.8033    0.4557   57.9548    0.4900   57.9577    0.4909
  0.220   57.8973    0.4785   57.7415    0.5083   57.7561    0.5077   57.8302    0.4778   57.9817    0.5138   57.9846    0.5147
  0.230   57.9255    0.5007   57.7695    0.5319   57.7840    0.5313   57.8583    0.5001   58.0100    0.5377   58.0129    0.5387
  0.240   57.9549    0.5230   57.7986    0.5556   57.8132    0.5550   57.8877    0.5223   58.0395    0.5617   58.0424    0.5627
  0.250   57.9856    0.5454   57.8291    0.5794   57.8437    0.5787   57.9184    0.5447   58.0703    0.5857   58.0732    0.5867
  0.260   58.0176    0.5679   57.8608    0.6032   57.8754    0.6026   57.9503    0.5671   58.1024    0.6098   58.1053    0.6109
  0.270   58.0509    0.5904   57.8939    0.6272   57.9084    0.6265   57.9836    0.5897   58.1358    0.6340   58.1387    0.6351
  0.280   58.0855    0.6130   57.9282    0.6512   57.9428    0.6505   58.0181    0.6123   58.1705    0.6583   58.1734    0.6595
  0.290   58.1214    0.6357   57.9638    0.6753   57.9784    0.6745   58.0540    0.6349   58.2066    0.6827   58.2095    0.6839
  0.300   58.1586    0.6585   58.0007    0.6995   58.0153    0.6987   58.0912    0.6577   58.2439    0.7072   58.2468    0.7084
  0.310   58.1972    0.6814   58.0389    0.7238   58.0535    0.7230   58.1296    0.6806   58.2825    0.7317   58.2854    0.7330
  0.320   58.2370    0.7044   58.0784    0.7481   58.0930    0.7473   58.1694    0.7035   58.3225    0.7564   58.3254    0.7577
  0.330   58.2782    0.7275   58.1192    0.7726   58.1339    0.7718   58.2106    0.7266   58.3638    0.7812   58.3667    0.7825
  0.340   58.3207    0.7506   58.1614    0.7972   58.1760    0.7964   58.2530    0.7497   58.4065    0.8060   58.4094    0.8074
  0.350   58.3645    0.7739   58.2048    0.8219   58.2195    0.8210   58.2968    0.7730   58.4504    0.8310   58.4533    0.8325
  0.360   58.4097    0.7973   58.2496    0.8467   58.2643    0.8458   58.3419    0.7963   58.4958    0.8561   58.4987    0.8576
  0.370   58.4562    0.8208   58.2958    0.8717   58.3105    0.8707   58.3884    0.8198   58.5424    0.8813   58.5453    0.8829
  0.380   58.5041    0.8444   58.3433    0.8967   58.3580    0.8958   58.4362    0.8434   58.5905    0.9067   58.5934    0.9082
  0.390   58.5534    0.8681   58.3921    0.9219   58.4068    0.9209   58.4854    0.8671   58.6399    0.9322   58.6428    0.9338
  0.400   58.6040    0.8920   58.4423    0.9472   58.4570    0.9462   58.5359    0.8909   58.6906    0.9578   58.6936    0.9594
  0.410   58.6560    0.9160   58.4938    0.9726   58.5086    0.9716   58.5879    0.9149   58.7428    0.9835   58.7457    0.9852
  0.420   58.7093    0.9401   58.5468    0.9982   58.5615    0.9971   58.6412    0.9389   58.7964    1.0094   58.7993    1.0111
  0.430   58.7641    0.9643   58.6011    1.0239   58.6158    1.0228   58.6959    0.9631   58.8513    1.0354   58.8542    1.0371
  0.440   58.8203    0.9887   58.6568    1.0497   58.6715    1.0486   58.7520    0.9875   58.9076    1.0615   58.9106    1.0633
  0.450   58.8778    1.0132   58.7138    1.0757   58.7286    1.0746   58.8095    1.0120   58.9654    1.0878   58.9683    1.0897
  0.460   58.9368    1.0378   58.7723    1.1019   58.7872    1.1007   58.8684    1.0366   59.0246    1.1143   59.0275    1.1162
  0.470   58.9972    1.0627   58.8322    1.1282   58.8471    1.1270   58.9287    1.0614   59.0852    1.1409   59.0881    1.1428
  0.480   59.0591    1.0876   58.8935    1.1546   58.9084    1.1534   58.9905    1.0864   59.1472    1.1677   59.1502    1.1697
  0.490   59.1224    1.1127   58.9563    1.1813   58.9712    1.1800   59.0537    1.1114   59.2107    1.1946   59.2136    1.1967
  0.500   59.1871    1.1380   59.0205    1.2080   59.0354    1.2068   59.1184    1.1367   59.2756    1.2218   59.2786    1.2238
  0.510   59.2533    1.1634   59.0861    1.2350   59.1010    1.2337   59.1845    1.1621   59.3421    1.2491   59.3450    1.2512
  0.520   59.3210    1.1891   59.1532    1.2621   59.1681    1.2608   59.2521    1.1877   59.4099    1.2765   59.4129    1.2787
  0.530   59.3901    1.2148   59.2217    1.2895   59.2367    1.2881   59.3212    1.2135   59.4793    1.3042   59.4823    1.3064
  0.540   59.4607    1.2408   59.2918    1.3170   59.3068    1.3156   59.3917    1.2394   59.5502    1.3321   59.5531    1.3343
  0.550   59.5329    1.2670   59.3633    1.3447   59.3783    1.3433   59.4638    1.2656   59.6225    1.3601   59.6255    1.3624
  0.560   59.6065    1.2933   59.4363    1.3726   59.4513    1.3711   59.5373    1.2919   59.6964    1.3884   59.6994    1.3907
  0.570   59.6817    1.3198   59.5108    1.4007   59.5259    1.3992   59.6124    1.3184   59.7718    1.4168   59.7748    1.4191
  0.580   59.7584    1.3465   59.5869    1.4290   59.6019    1.4275   59.6890    1.3451   59.8488    1.4455   59.8518    1.4478
  0.590   59.8367    1.3735   59.6644    1.4575   59.6795    1.4560   59.7672    1.3720   59.9273    1.4743   59.9303    1.4768
  0.600   59.9165    1.4006   59.7436    1.4862   59.7587    1.4847   59.8469    1.3991   60.0074    1.5034   60.0104    1.5059
  0.610   59.9978    1.4279   59.8242    1.5151   59.8394    1.5136   59.9282    1.4264   60.0890    1.5328   60.0920    1.5353
  0.620   60.0808    1.4555   59.9065    1.5443   59.9216    1.5427   60.0110    1.4540   60.1722    1.5623   60.1752    1.5649
  0.630   60.1654    1.4833   59.9903    1.5737   60.0055    1.5721   60.0955    1.4817   60.2571    1.5921   60.2601    1.5947
  0.640   60.2515    1.5113   60.0757    1.6033   60.0909    1.6017   60.1816    1.5097   60.3435    1.6221   60.3465    1.6248
  0.650   60.3393    1.5395   60.1627    1.6332   60.1779    1.6316   60.2692    1.5380   60.4316    1.6524   60.4346    1.6551
  0.660   60.4287    1.5680   60.2513    1.6633   60.2666    1.6617   60.3586    1.5664   60.5213    1.6829   60.5243    1.6856
  0.670   60.5198    1.5967   60.3416    1.6937   60.3569    1.6920   60.4495    1.5951   60.6126    1.7137   60.6156    1.7165
  0.680   60.6125    1.6257   60.4335    1.7243   60.4488    1.7226   60.5421    1.6241   60.7056    1.7448   60.7087    1.7476
  0.690   60.7069    1.6549   60.5271    1.7552   60.5424    1.7535   60.6364    1.6533   60.8003    1.7761   60.8034    1.7789
  0.700   60.8030    1.6844   60.6223    1.7864   60.6377    1.7846   60.7324    1.6828   60.8968    1.8077   60.8998    1.8106
  0.710   60.9008    1.7141   60.7192    1.8179   60.7346    1.8161   60.8301    1.7125   60.9949    1.8396   60.9979    1.8425
  0.720   61.0003    1.7441   60.8179    1.8496   60.8333    1.8478   60.9295    1.7425   61.0947    1.8718   61.0978    1.8747
  0.730   61.1016    1.7744   60.9182    1.8816   60.9337    1.8798   61.0307    1.7728   61.1963    1.9042   61.1994    1.9072
  0.740   61.2046    1.8050   61.0203    1.9139   61.0358    1.9121   61.1336    1.8034   61.2997    1.9370   61.3027    1.9400
  0.750   61.3094    1.8359   61.1242    1.9466   61.1397    1.9446   61.2383    1.8342   61.4048    1.9701   61.4079    1.9732
  0.760   61.4160    1.8670   61.2298    1.9795   61.2453    1.9776   61.3447    1.8654   61.5117    2.0035   61.5148    2.0066
  0.770   61.5244    1.8985   61.3372    2.0127   61.3528    2.0108   61.4530    1.8968   61.6204    2.0372   61.6235    2.0404
  0.780   61.6346    1.9303   61.4464    2.0463   61.4620    2.0443   61.5631    1.9286   61.7310    2.0713   61.7341    2.0745
  0.790   61.7466    1.9624   61.5575    2.0802   61.5731    2.0782   61.6750    1.9607   61.8434    2.1057   61.8465    2.1089
  0.800   61.8605    1.9948   61.6703    2.1144   61.6860    2.1124   61.7888    1.9931   61.9577    2.1404   61.9608    2.1437
  0.810   61.9763    2.0275   61.7851    2.1490   61.8008    2.1470   61.9044    2.0259   62.0739    2.1755   62.0770    2.1788
  0.820   62.0940    2.0606   61.9017    2.1840   61.9174    2.1819   62.0220    2.0590   62.1919    2.2110   62.1951    2.2143
  0.830   62.2136    2.0941   62.0202    2.2193   62.0360    2.2171   62.1415    2.0924   62.3119    2.2468   62.3151    2.2502
  0.840   62.3351    2.1279   62.1406    2.2549   62.1564    2.2528   62.2629    2.1262   62.4339    2.2830   62.4370    2.2864
  0.850   62.4586    2.1620   62.2630    2.2910   62.2788    2.2888   62.3863    2.1604   62.5578    2.3196   62.5609    2.3230
  0.860   62.5841    2.1966   62.3873    2.3274   62.4032    2.3252   62.5116    2.1949   62.6837    2.3566   62.6868    2.3601
  0.870   62.7116    2.2315   62.5137    2.3642   62.5295    2.3620   62.6390    2.2299   62.8116    2.3939   62.8148    2.3975
  0.880   62.8411    2.2668   62.6420    2.4015   62.6579    2.3992   62.7684    2.2652   62.9415    2.4317   62.9447    2.4353
  0.890   62.9727    2.3025   62.7723    2.4391   62.7883    2.4368   62.8998    2.3009   63.0735    2.4700   63.0767    2.4736
  0.900   63.1063    2.3386   62.9047    2.4771   62.9207    2.4749   63.0333    2.3370   63.2076    2.5086   63.2108    2.5123
  0.910   63.2421    2.3751   63.0392    2.5156   63.0552    2.5133   63.1689    2.3735   63.3437    2.5477   63.3470    2.5514
  0.920   63.3799    2.4120   63.1757    2.5546   63.1918    2.5522   63.3066    2.4104   63.4820    2.5873   63.4853    2.5910
  0.930   63.5199    2.4494   63.3144    2.5939   63.3305    2.5916   63.4465    2.4478   63.6225    2.6273   63.6257    2.6310
  0.940   63.6620    2.4872   63.4552    2.6338   63.4713    2.6314   63.5885    2.4856   63.7651    2.6677   63.7684    2.6715
  0.950   63.8064    2.5254   63.5982    2.6741   63.6144    2.6717   63.7327    2.5239   63.9099    2.7087   63.9132    2.7125
  0.960   63.9530    2.5641   63.7434    2.7149   63.7596    2.7124   63.8791    2.5626   64.0570    2.7501   64.0603    2.7540
  0.970   64.1018    2.6033   63.8908    2.7561   63.9070    2.7537   64.0278    2.6019   64.2063    2.7921   64.2096    2.7960
  0.980   64.2529    2.6430   64.0404    2.7979   64.0567    2.7954   64.1787    2.6416   64.3579    2.8346   64.3612    2.8385
  0.990   64.4063    2.6832   64.1924    2.8402   64.2087    2.8377   64.3320    2.6818   64.5118    2.8776   64.5151    2.8815
  1.000   64.5620    2.7238   64.3466    2.8830   64.3630    2.8805   64.4876    2.7225   64.6680    2.9211   64.6714    2.9251
  1.010   64.7201    2.7650   64.5032    2.9264   64.5196    2.9238   64.6455    2.7637   64.8266    2.9652   64.8300    2.9692
  1.020   64.8806    2.8067   64.6621    2.9703   64.6786    2.9677   64.8058    2.8054   64.9876    3.0098   64.9910    3.0139
  1.030   65.0435    2.8490   64.8234    3.0147   64.8399    3.0121   64.9686    2.8477   65.1511    3.0550   65.1545    3.0592
  1.040   65.2088    2.8918   64.9872    3.0598   65.0037    3.0571   65.1338    2.8906   65.3170    3.1008   65.3204    3.1050
  1.050   65.3767    2.9352   65.1534    3.1054   65.1700    3.1027   65.3015    2.9340   65.4854    3.1472   65.4888    3.1514
  1.060   65.5470    2.9791   65.3221    3.1516   65.3387    3.1489   65.4717    2.9780   65.6563    3.1942   65.6597    3.1985
  1.070   65.7200    3.0237   65.4933    3.1984   65.5100    3.1957   65.6445    3.0225   65.8298    3.2419   65.8332    3.2462
  1.080   65.8955    3.0688   65.6671    3.2459   65.6838    3.2431   65.8198    3.0677   66.0059    3.2902   66.0093    3.2945
  1.090   66.0736    3.1146   65.8434    3.2940   65.8602    3.2912   65.9978    3.1135   66.1846    3.3391   66.1881    3.3435
  1.100   66.2544    3.1610   66.0224    3.3427   66.0392    3.3399   66.1784    3.1600   66.3659    3.3887   66.3695    3.3931
  1.110   66.4379    3.2080   66.2041    3.3922   66.2209    3.3893   66.3618    3.2071   66.5500    3.4391   66.5536    3.4435
  1.120   66.6241    3.2557   66.3884    3.4423   66.4053    3.4394   66.5478    3.2548   66.7369    3.4901   66.7404    3.4945
  1.130   66.8130    3.3041   66.5755    3.4931   66.5925    3.4902   66.7366    3.3033   66.9265    3.5418   66.9300    3.5463
  1.140   67.0048    3.3531   66.7653    3.5446   66.7824    3.5417   66.9283    3.3524   67.1189    3.5943   67.1225    3.5988
  1.150   67.1995    3.4029   66.9580    3.5969   66.9751    3.5939   67.1227    3.4022   67.3142    3.6475   67.3178    3.6521
  1.160   67.3970    3.4534   67.1535    3.6499   67.1707    3.6469   67.3201    3.4528   67.5123    3.7015   67.5160    3.7061
  1.170   67.5975    3.5047   67.3520    3.7037   67.3691    3.7007   67.5204    3.5041   67.7135    3.7563   67.7171    3.7609
  1.180   67.8009    3.5567   67.5533    3.7582   67.5705    3.7552   67.7237    3.5562   67.9176    3.8119   67.9213    3.8166
  1.190   68.0074    3.6095   67.7577    3.8136   67.7749    3.8106   67.9300    3.6091   68.1247    3.8683   68.1285    3.8730
  1.200   68.2169    3.6631   67.9650    3.8698   67.9824    3.8667   68.1394    3.6628   68.3350    3.9256   68.3387    3.9303
  1.210   68.4296    3.7175   68.1755    3.9269   68.1929    3.9238   68.3519    3.7173   68.5483    3.9838   68.5521    3.9885
  1.220   68.6454    3.7727   68.3890    3.9848   68.4065    3.9816   68.5675    3.7726   68.7648    4.0428   68.7686    4.0476
  1.230   68.8644    3.8288   68.6058    4.0436   68.6232    4.0404   68.7864    3.8288   68.9846    4.1027   68.9884    4.1076
  1.240   69.0867    3.8858   68.8257    4.1033   68.8432    4.1001   69.0085    3.8859   69.2076    4.1636   69.2114    4.1685
  1.250   69.3123    3.9436   69.0489    4.1639   69.0665    4.1607   69.2339    3.9438   69.4339    4.2255   69.4378    4.2304
  1.260   69.5412    4.0024   69.2754    4.2255   69.2931    4.2223   69.4627    4.0027   69.6636    4.2883   69.6675    4.2932
  1.270   69.7736    4.0622   69.5053    4.2881   69.5230    4.2848   69.6949    4.0626   69.8967    4.3521   69.9007    4.3571
  1.280   70.0094    4.1229   69.7386    4.3516   69.7564    4.3483   69.9306    4.1234   70.1333    4.4170   70.1373    4.4219
  1.290   70.2487    4.1846   69.9754    4.4162   69.9932    4.4129   70.1698    4.1852   70.3735    4.4829   70.3775    4.4879
  1.300   70.4917    4.2473   70.2157    4.4819   70.2336    4.4785   70.4126    4.2481   70.6172    4.5499   70.6213    4.5549
  1.310   70.7382    4.3110   70.4596    4.5486   70.4775    4.5452   70.6590    4.3119   70.8646    4.6179   70.8687    4.6230
  1.320   70.9885    4.3758   70.7072    4.6164   70.7252    4.6130   70.9091    4.3769   71.1157    4.6872   71.1198    4.6923
  1.330   71.2426    4.4417   70.9584    4.6853   70.9765    4.6819   71.1630    4.4430   71.3706    4.7576   71.3747    4.7627
  1.340   71.5004    4.5088   71.2134    4.7554   71.2316    4.7520   71.4207    4.5101   71.6293    4.8291   71.6335    4.8343
  1.350   71.7622    4.5769   71.4723    4.8267   71.4905    4.8233   71.6823    4.5785   71.8919    4.9020   71.8961    4.9071
  1.360   72.0279    4.6463   71.7351    4.8992   71.7533    4.8957   71.9479    4.6480   72.1585    4.9760   72.1628    4.9812
  1.370   72.2976    4.7169   72.0018    4.9730   72.0201    4.9695   72.2174    4.7188   72.4291    5.0514   72.4334    5.0566
  1.380   72.5715    4.7887   72.2726    5.0480   72.2909    5.0445   72.4911    4.7908   72.7038    5.1280   72.7082    5.1333
  1.390   72.8495    4.8618   72.5474    5.1244   72.5659    5.1208   72.7690    4.8640   72.9827    5.2061   72.9871    5.2113
  1.400   73.1317    4.9362   72.8265    5.2021   72.8450    5.1985   73.0511    4.9386   73.2659    5.2855   73.2704    5.2908
  1.410   73.4182    5.0119   73.1098    5.2812   73.1283    5.2776   73.3375    5.0146   73.5534    5.3664   73.5579    5.3717
  1.420   73.7092    5.0891   73.3974    5.3617   73.4160    5.3581   73.6283    5.0919   73.8453    5.4487   73.8498    5.4540
  1.430   74.0046    5.1676   73.6894    5.4437   73.7081    5.4400   73.9236    5.1707   74.1417    5.5325   74.1463    5.5378
  1.440   74.3046    5.2476   73.9859    5.5271   74.0047    5.5235   74.2234    5.2509   74.4426    5.6179   74.4473    5.6232
  1.450   74.6092    5.3291   74.2870    5.6121   74.3058    5.6084   74.5279    5.3326   74.7482    5.7048   74.7529    5.7102
  1.460   74.9185    5.4121   74.5927    5.6987   74.6116    5.6950   74.8371    5.4159   75.0585    5.7934   75.0633    5.7988
  1.470   75.2326    5.4967   74.9031    5.7869   74.9221    5.7832   75.1511    5.5007   75.3737    5.8837   75.3785    5.8891
  1.480   75.5517    5.5829   75.2184    5.8768   75.2374    5.8730   75.4700    5.5872   75.6938    5.9756   75.6986    5.9811
  1.490   75.8757    5.6708   75.5386    5.9684   75.5577    5.9646   75.7939    5.6754   76.0188    6.0694   76.0238    6.0748
  1.500   76.2048    5.7604   75.8637    6.0618   75.8829    6.0579   76.1229    5.7652   76.3490    6.1650   76.3540    6.1704
  1.510   76.5391    5.8517   76.1940    6.1569   76.2133    6.1531   76.4570    5.8569   76.6844    6.2624   76.6894    6.2679
  1.520   76.8787    5.9449   76.5295    6.2539   76.5488    6.2501   76.7965    5.9504   77.0251    6.3618   77.0302    6.3673
  1.530   77.2236    6.0399   76.8703    6.3529   76.8896    6.3490   77.1414    6.0457   77.3712    6.4631   77.3763    6.4686
  1.540   77.5741    6.1368   77.2164    6.4538   77.2359    6.4499   77.4917    6.1430   77.7227    6.5665   77.7280    6.5720
  1.550   77.9302    6.2357   77.5681    6.5567   77.5877    6.5528   77.8477    6.2422   78.0799    6.6720   78.0853    6.6775
  1.560   78.2919    6.3366   77.9254    6.6617   77.9450    6.6578   78.2094    6.3435   78.4429    6.7796   78.4483    6.7851
  1.570   78.6596    6.4396   78.2885    6.7688   78.3081    6.7649   78.5769    6.4469   78.8117    6.8894   78.8171    6.8949
  1.580   79.0331    6.5448   78.6573    6.8782   78.6771    6.8742   78.9504    6.5524   79.1864    7.0015   79.1920    7.0070
  1.590   79.4127    6.6522   79.0322    6.9898   79.0520    6.9858   79.3300    6.6602   79.5673    7.1160   79.5729    7.1215
  1.600   79.7986    6.7618   79.4131    7.1038   79.4330    7.0997   79.7157    6.7703   79.9543    7.2329   79.9600    7.2384
  1.610   80.1907    6.8738   79.8003    7.2201   79.8202    7.2161   80.1078    6.8827   80.3477    7.3522   80.3535    7.3578
  1.620   80.5893    6.9882   80.1937    7.3390   80.2138    7.3349   80.5063    6.9976   80.7475    7.4742   80.7534    7.4797
  1.630   80.9945    7.1051   80.5937    7.4604   80.6138    7.4563   80.9115    7.1150   81.1540    7.5987   81.1600    7.6043
  1.640   81.4064    7.2245   81.0003    7.5844   81.0205    7.5803   81.3234    7.2349   81.5672    7.7260   81.5733    7.7316
  1.650   81.8252    7.3466   81.4136    7.7111   81.4339    7.7070   81.7422    7.3575   81.9873    7.8562   81.9935    7.8617
  1.660   82.2511    7.4714   81.8338    7.8406   81.8542    7.8365   82.1680    7.4829   82.4145    7.9892   82.4208    7.9947
  1.670   82.6841    7.5991   82.2611    7.9730   82.2815    7.9689   82.6010    7.6111   82.8488    8.1252   82.8552    8.1306
  1.680   83.1244    7.7296   82.6955    8.1084   82.7161    8.1042   83.0413    7.7422   83.2905    8.2642   83.2970    8.2697
  1.690   83.5723    7.8631   83.1373    8.2468   83.1580    8.2426   83.4891    7.8763   83.7397    8.4065   83.7464    8.4119
  1.700   84.0278    7.9997   83.5867    8.3884   83.6074    8.3842   83.9447    8.0136   84.1966    8.5520   84.2034    8.5575
  1.710   84.4912    8.1395   84.0437    8.5333   84.0645    8.5291   84.4081    8.1540   84.6614    8.7009   84.6682    8.7064
  1.720   84.9625    8.2826   84.5086    8.6815   84.5295    8.6773   84.8795    8.2978   85.1342    8.8533   85.1412    8.8588
  1.730   85.4421    8.4291   84.9815    8.8332   85.0025    8.8290   85.3591    8.4450   85.6152    9.0094   85.6223    9.0148
  1.740   85.9301    8.5791   85.4627    8.9885   85.4837    8.9843   85.8471    8.5958   86.1046    9.1691   86.1118    9.1745
  1.750   86.4266    8.7328   85.9522    9.1475   85.9734    9.1433   86.3437    8.7502   86.6026    9.3327   86.6100    9.3381
  1.760   86.9319    8.8902   86.4504    9.3104   86.4716    9.3061   86.8491    8.9084   87.1094    9.5003   87.1169    9.5056
  1.770   87.4463    9.0514   86.9574    9.4772   86.9787    9.4729   87.3636    9.0705   87.6252    9.6720   87.6329    9.6773
  1.780   87.9698    9.2167   87.4734    9.6481   87.4948    9.6438   87.8872    9.2367   88.1502    9.8480   88.1581    9.8532
  1.790   88.5028    9.3861   87.9986    9.8232   88.0201    9.8189   88.4203    9.4070   88.6847   10.0283   88.6927   10.0336
  1.800   89.0454    9.5598   88.5333   10.0027   88.5549    9.9984   88.9631    9.5817   89.2289   10.2133   89.2371   10.2185
  1.810   89.5979    9.7380   89.0777   10.1868   89.0993   10.1824   89.5158    9.7608   89.7829   10.4029   89.7913   10.4081
  1.820   90.1606    9.9208   89.6320   10.3755   89.6537   10.3712   90.0786    9.9446   90.3471   10.5974   90.3557   10.6025
  1.830   90.7336   10.1083   90.1965   10.5691   90.2183   10.5647   90.6518   10.1332   90.9217   10.7970   90.9305   10.8021
  1.840   91.3173   10.3008   90.7713   10.7677   90.7932   10.7634   91.2357   10.3268   91.5070   11.0019   91.5159   11.0069
  1.850   91.9119   10.4983   91.3569   10.9716   91.3789   10.9672   91.8306   10.5256   92.1032   11.2121   92.1123   11.2170
  1.860   92.5177   10.7012   91.9534   11.1808   91.9755   11.1764   92.4367   10.7297   92.7106   11.4280   92.7199   11.4329
  1.870   93.1350   10.9096   92.5611   11.3957   92.5833   11.3913   93.0542   10.9394   93.3295   11.6497   93.3390   11.6545
  1.880   93.7641   11.1237   93.1804   11.6163   93.2026   11.6119   93.6836   11.1548   93.9602   11.8775   93.9699   11.8822
  1.890   94.4052   11.3437   93.8114   11.8430   93.8338   11.8385   94.3251   11.3762   94.6029   12.1115   94.6129   12.1162
  1.900   95.0588   11.5698   94.4546   12.0759   94.4770   12.0714   94.9790   11.6037   95.2581   12.3520   95.2684   12.3567
  1.910   95.7251   11.8023   95.1102   12.3152   95.1327   12.3108   95.6457   11.8378   95.9260   12.5994   95.9365   12.6039
  1.920   96.4044   12.0414   95.7786   12.5613   95.8012   12.5569   96.3254   12.0785   96.6070   12.8537   96.6178   12.8581
  1.930   97.0972   12.2874   96.4601   12.8144   96.4828   12.8100   97.0187   12.3262   97.3014   13.1153   97.3125   13.1197
  1.940   97.8038   12.5406   97.1550   13.0748   97.1778   13.0704   97.7257   12.5811   98.0096   13.3845   98.0210   13.3888
  1.950   98.5246   12.8012   97.8638   13.3427   97.8867   13.3383   98.4470   12.8435   98.7320   13.6617   98.7436   13.6658
  1.960   99.2599   13.0695   98.5868   13.6184   98.6097   13.6140   99.1829   13.1137   99.4689   13.9470   99.4809   13.9510
  1.970  100.0102   13.3459   99.3244   13.9023   99.3474   13.8979   99.9337   13.3920  100.2208   14.2408  100.2331   14.2448
  1.980  100.7759   13.6306  100.0769   14.1947  100.1000   14.1903  100.7000   13.6788  100.9881   14.5435  101.0007   14.5474
  1.990  101.5575   13.9241  100.8450   14.4960  100.8681   14.4915  101.4822   13.9745  101.7711   14.8555  101.7841   14.8592
  2.000  102.3553   14.2266  101.6288   14.8064  101.6521   14.8020  102.2807   14.2793  102.5705   15.1771  102.5838   15.1807
  2.010  103.1698   14.5386  102.4290   15.1264  102.4524   15.1220  103.0960   14.5937  103.3865   15.5087  103.4003   15.5122
  2.020  104.0016   14.8605  103.2460   15.4564  103.2694   15.4520  103.9286   14.9181  104.2198   15.8508  104.2340   15.8542
  2.030  104.8512   15.1926  104.0803   15.7968  104.1038   15.7924  104.7789   15.2528  105.0708   16.2038  105.0854   16.2070
  2.040  105.7191   15.5355  104.9323   16.1481  104.9559   16.1437  105.6476   15.5985  105.9400   16.5682  105.9550   16.5713
  2.050  106.6057   15.8896  105.8026   16.5107  105.8263   16.5063  106.5352   15.9555  106.8280   16.9445  106.8435   16.9474
  2.060  107.5118   16.2555  106.6918   16.8851  106.7156   16.8807  107.4422   16.3243  107.7354   17.3332  107.7513   17.3360
  2.070  108.4378   16.6335  107.6005   17.2719  107.6242   17.2675  108.3692   16.7056  108.6626   17.7348  108.6790   17.7375
  2.080  109.3844   17.0244  108.5291   17.6716  108.5529   17.6672  109.3169   17.0997  109.6104   18.1500  109.6273   18.1525
  2.090  110.3523   17.4286  109.4783   18.0848  109.5022   18.0804  110.2858   17.5074  110.5793   18.5794  110.5968   18.5817
  2.100  111.3420   17.8468  110.4488   18.5120  110.4728   18.5077  111.2767   17.9293  111.5700   19.0237  111.5881   19.0258
  2.110  112.3544   18.2797  111.4412   18.9541  111.4652   18.9498  112.2903   18.3661  112.5832   19.4834  112.6019   19.4853
  2.120  113.3900   18.7279  112.4562   19.4116  112.4803   19.4074  113.3272   18.8183  113.6196   19.9594  113.6389   19.9611
  2.130  114.4496   19.1922  113.4945   19.8853  113.5186   19.8811  114.3882   19.2869  114.6799   20.4524  114.6998   20.4540
  2.140  115.5341   19.6733  114.5569   20.3760  114.5810   20.3718  115.4741   19.7725  115.7649   20.9634  115.7855   20.9647
  2.150  116.6442   20.1722  115.6440   20.8844  115.6683   20.8802  116.5856   20.2761  116.8753   21.4930  116.8966   21.4941
  2.160  117.7808   20.6896  116.7568   21.4115  116.7811   21.4074  117.7237   20.7985  118.0120   22.0423  118.0341   22.0432
  2.170  118.9446   21.2265  117.8961   21.9582  117.9204   21.9541  118.8892   21.3406  119.1759   22.6123  119.1987   22.6129
  2.180  120.1368   21.7839  119.0626   22.5255  119.0869   22.5214  120.0831   21.9035  120.3678   23.2039  120.3914   23.2043
  2.190  121.3581   22.3628  120.2574   23.1144  120.2817   23.1103  121.3061   22.4883  121.5886   23.8184  121.6132   23.8185
  2.200  122.6095   22.9644  121.4813   23.7260  121.5057   23.7219  122.5595   23.0960  122.8394   24.4568  122.8648   24.4567
  2.210  123.8922   23.5898  122.7354   24.3615  122.7597   24.3574  123.8441   23.7279  124.1210   25.1206  124.1474   25.1201
  2.220  125.2072   24.2404  124.0206   25.0221  124.0449   25.0181  125.1610   24.3854  125.4347   25.8109  125.4621   25.8102
  2.230  126.5555   24.9174  125.3380   25.7093  125.3623   25.7053  126.5115   25.0697  126.7813   26.5292  126.8098   26.5282
  2.240  127.9384   25.6224  126.6887   26.4244  126.7130   26.4205  127.8965   25.7823  128.1621   27.2771  128.1917   27.2758
  2.250  129.3569   26.3569  128.0739   27.1690  128.0982   27.1651  129.3174   26.5249  129.5782   28.0562  129.6089   28.0546
  2.260  130.8125   27.1225  129.4946   27.9447  129.5189   27.9408  130.7753   27.2991  131.0308   28.8683  131.0628   28.8664
  2.270  132.3064   27.9210  130.9523   28.7532  130.9765   28.7494  132.2717   28.1066  132.5212   29.7151  132.5545   29.7129
  2.280  133.8400   28.7543  132.4481   29.5965  132.4722   29.5927  133.8077   28.9496  134.0506   30.5988  134.0853   30.5963
  2.290  135.4146   29.6245  133.9833   30.4764  134.0073   30.4726  135.3850   29.8299  135.6205   31.5214  135.6567   31.5185
  2.300  137.0318   30.5336  135.5594   31.3953  135.5834   31.3915  137.0049   30.7498  137.2323   32.4853  137.2700   32.4821
  2.310  138.6931   31.4841  137.1778   32.3552  137.2017   32.3515  138.6689   31.7118  138.8873   33.4929  138.9267   33.4893
  2.320  140.4000   32.4785  138.8400   33.3588  138.8637   33.3551  140.3787   32.7183  140.5871   34.5468  140.6282   34.5429
  2.330  142.1542   33.5194  140.5475   34.4086  140.5711   34.4049  142.1359   33.7722  142.3333   35.6499  142.3762   35.6456
  2.340  143.9575   34.6098  142.3020   35.5076  142.3254   35.5039  143.9421   34.8763  144.1274   36.8053  144.1723   36.8007
  2.350  145.8115   35.7527  144.1050   36.6587  144.1282   36.6550  145.7992   36.0340  145.9712   38.0162  146.0181   38.0112
  2.360  147.7182   36.9517  145.9583   37.8654  145.9813   37.8617  147.7090   37.2485  147.8662   39.2862  147.9153   39.2809
  2.370  149.6794   38.2102  147.8637   39.1310  147.8864   39.1273  149.6733   38.5237  149.8143   40.6191  149.8658   40.6136
  2.380  151.6970   39.5323  149.8229   40.4596  149.8454   40.4559  151.6941   39.8635  151.8173   42.0192  151.8712   42.0132
  2.390  153.7732   40.9223  151.8378   41.8552  151.8600   41.8514  153.7734   41.2723  153.8769   43.4907  153.9335   43.4845
  2.400  155.9099   42.3846  153.9104   43.3223  153.9322   43.3185  155.9133   42.7548  155.9951   45.0386  156.0545   45.0321
  2.410  158.1093   43.9244  156.0425   44.8658  156.0640   44.8619  158.1157   44.3161  158.1738   46.6681  158.2361   46.6613
  2.420  160.3734   45.5469  158.2362   46.4910  158.2572   46.4870  160.3829   45.9617  160.4148   48.3848  160.4802   48.3778
  2.430  162.7046   47.2582  160.4934   48.2035  160.5140   48.1994  162.7170   47.6977  162.7200   50.1950  162.7889   50.1878
  2.440  165.1051   49.0645  162.8161   50.0095  162.8363   50.0053  165.1201   49.5304  165.0914   52.1052  165.1639   52.0979
  2.450  167.5770   50.9729  165.2064   51.9157  165.2261   51.9114  167.5945   51.4670  167.5308   54.1228  167.6071   54.1154
  2.460  170.1226   52.9908  167.6663   53.9296  167.6854   53.9250  170.1422   53.5153  170.0401   56.2555  170.1204   56.2481
  2.470  172.7440   55.1265  170.1977   56.0589  170.2162   56.0542  172.7654   55.6835  172.6209   58.5121  172.7056   58.5048
  2.480  175.4434   57.3891  172.8025   58.3125  172.8202   58.3074  175.4661   57.9810  175.2748   60.9018  175.3643   60.8946
  2.490  178.2229   59.7882  175.4824   60.6996  175.4994   60.6943  178.2463   60.4177  178.0034   63.4348  178.0978   63.4279
  2.500  181.0842   62.3346  178.2391   63.2307  178.2553   63.2250  181.1077   63.0045  180.8078   66.1222  180.9076   66.1158
  2.510  184.0292   65.0401  181.0740   65.9170  181.0893   65.9108  184.0518   65.7534  183.6890   68.9762  183.7946   68.9704
  2.520  187.0593   67.9174  183.9883   68.7708  184.0027   68.7641  187.0799   68.6775  186.6476   72.0101  186.7593   72.0050
  2.530  190.1755   70.9807  186.9828   71.8055  186.9961   71.7982  190.1929   71.7910  189.6837   75.2382  189.8021   75.2342
  2.540  193.3787   74.2452  190.0579   75.0358  190.0701   75.0278  193.3913   75.1098  192.7970   78.6764  192.9225   78.6737
  2.550  196.6688   77.7278  193.2134   78.4779  193.2245   78.4690  196.6749   78.6510  195.9862   82.3421  196.1193   82.3410
  2.560  200.0454   81.4472  196.4486   82.1494  196.4584   82.1395  200.0427   82.4334  199.2495   86.2542  199.3908   86.2550
  2.570  203.5071   85.4234  199.7618   86.0696  199.7702   86.0586  203.4929   86.4777  202.5838   90.4333  202.7339   90.4366
  2.580  207.0513   89.6790  203.1502   90.2597  203.1572   90.2473  207.0225   90.8067  205.9848   94.9020  206.1442   94.9083
  2.590  210.6742   94.2381  206.6099   94.7428  206.6153   94.7289  210.6272   95.4451  209.4464   99.6852  209.6159   99.6950
  2.600  214.3704   99.1277  210.1353   99.5443  210.1391   99.5286  214.3006  100.4202  212.9608  104.8097  213.1411  104.8237
  2.610  218.1322  104.3771  213.7189  104.6919  213.7209  104.6741  218.0345  105.7618  216.5178  110.3049  216.7096  110.3240
  2.620  221.9497  110.0183  217.3507  110.2159  217.3510  110.1957  221.8178  111.5024  220.1041  116.2027  220.3083  116.2279
  2.630  225.8098  116.0864  221.0180  116.1493  221.0165  116.1263  225.6364  117.6775  223.7033  122.5378  223.9207  122.5702
  2.640  229.6958  122.6195  224.7047  122.5279  224.7012  122.5018  229.4722  124.3256  227.2947  129.3474  227.5260  129.3883
  2.650  233.5863  129.6591  228.3901  129.3908  228.3848  129.3609  233.3024  131.4886  230.8524  136.6719  231.0986  136.7229
  2.660  237.4548  137.2498  232.0488  136.7797  232.0417  136.7457  237.0984  139.2113  234.3448  144.5541  234.6066  144.6169
  2.670  241.2678  145.4396  235.6490  144.7397  235.6402  144.7008  240.8248  147.5420  237.7329  153.0393  238.0113  153.1161
  2.680  244.9842  154.2797  239.1518  153.3186  239.1414  153.2742  244.4380  156.5317  240.9695  162.1753  241.2650  162.2684
  2.690  248.5534  163.8240  242.5091  162.5669  242.4976  162.5161  247.8844  166.2340  243.9972  172.0111  244.3104  172.1233
  2.700  251.9134  174.1285  245.6630  172.5368  245.6505  172.4789  251.0991  176.7042  246.7469  182.5963  247.0783  182.7308
  2.710  254.9891  185.2502  248.5427  183.2818  248.5300  183.2158  254.0032  187.9981  249.1360  193.9798  249.4856  194.1404
  2.720  257.6896  197.2457  251.0634  194.8548  251.0512  194.7797  256.5020  200.1704  251.0662  206.2077  251.4337  206.3983
  2.730  259.9064  210.1687  253.1236  207.3064  253.1130  207.2211  258.4823  213.2721  252.4217  219.3204  252.8063  219.5458
  2.740  261.5101  224.0673  254.6029  220.6819  254.5952  220.5855  259.8104  227.3473  253.0670  233.3493  253.4671  233.6147
  2.750  262.3486  238.9794  255.3597  235.0180  255.3565  234.9094  260.3294  242.4289  252.8454  248.3122  253.2586  248.6231
  2.760  262.2449  254.9273  255.2291  250.3371  255.2326  250.2155  259.8577  258.5324  251.5782  264.2072  252.0010  264.5698
  2.770  260.9956  271.9109  254.0219  266.6416  254.0346  266.5063  258.1879  275.6492  249.0649  281.0058  249.4924  281.4264
  2.780  258.3714  289.8988  251.5241  283.9057  251.5491  283.7566  255.0879  293.7371  245.0851  298.6448  245.5107  299.1295
  2.790  254.1190  308.8180  247.4989  302.0664  247.5397  301.9036  250.3033  312.7107  239.4026  317.0162  239.8179  317.5711
  2.800  247.9668  328.5425  241.6909  321.0124  241.7515  320.8372  243.5640  332.4295  231.7735  335.9583  232.1679  336.5885
  2.810  239.6344  348.8811  233.8347  340.5731  233.9193  340.3874  234.5946  352.6863  221.9574  355.2461  222.3182  355.9553
  2.820  228.8469  369.5658  223.6668  360.5071  223.7797  360.3144  223.1298  373.1969  209.7333  374.5840  210.0458  375.3737
  2.830  215.3566  390.2430  210.9450  380.4940  211.0902  380.2989  208.9361  393.5921  194.9206  393.6026  195.1680  394.4713
  2.840  198.9687  410.4706  195.4713  400.1290  195.6521  399.9378  191.8384  413.4170  177.4027  411.8613  177.5675  412.8038
  2.850  179.5734  429.7230  177.1215  418.9268  177.3397  418.7472  171.7510  432.1376  157.1538  428.8598  157.2181  429.8665
  2.860  157.1791  447.4086  155.8758  436.3345  156.1316  436.1753  148.7097  449.1607  134.2635  444.0595  134.2104  445.1158
  2.870  131.9427  462.9018  131.8493  451.7582  132.1401  451.6289  122.8992  463.8663  108.9560  456.9153  108.7715  458.0020
  2.880  104.1905  475.5882  105.3133  464.6030  105.6340  464.5128   94.6711  475.6539   81.5994  466.9170   81.2736  468.0106
  2.890   74.4217  484.9226   76.7043  474.3242   77.0470  474.2814   64.5447  483.9977   52.6996  473.6355   52.2280  474.7098
  2.900   43.2894  490.4890   46.6119  480.4841   46.9661  480.4949   33.1853  488.5044   22.8768  476.7690   22.2616  477.7964
  2.910   11.5562  492.0554   15.7440  482.8056   16.0975  482.8733    1.3604  488.9634   -7.1752  476.1795   -7.9253  477.1335
  2.920  -19.9722  489.6094  -15.1298  481.2113  -14.7904  481.3361  -30.1255  485.3783  -36.7443  471.9151  -37.6145  472.7716
  2.930  -50.5280  483.3657  -45.2501  475.8399  -44.9379  476.0181  -60.5059  477.9720  -65.1622  464.2095  -66.1328  464.9489
  2.940  -79.4619  473.7404  -73.9440  467.0317  -73.6711  467.2564  -89.1270  467.1606  -91.8648  453.4589  -92.9129  454.0671
  2.950 -106.3112  461.2909 -100.6931  455.2845 -100.4696  455.5458 -115.5079  453.4990 -116.4416  440.1762 -117.5429  440.6443
  2.960 -130.8383  446.6286 -125.1803  441.1809 -125.0138  441.4662 -139.3756  437.6039 -138.6661  424.9257 -139.7962  425.2502
  2.970 -153.0281  430.3144 -147.3020  425.2972 -147.1968  425.5919 -160.6631  420.0646 -158.4969  408.2480 -159.6325  408.4292
  2.980 -173.0278  412.7591 -167.1341  408.1086 -167.0900  408.3967 -179.4649  401.3596 -176.0429  390.5839 -177.1619  390.6257
  2.990 -191.0281  394.1644 -184.8436  389.9195 -184.8552  390.1851 -195.9470  381.8048 -191.4877  372.2217 -192.5685  372.1307
  3.000 -207.1155  374.5543 -200.5643  370.8601 -200.6203  371.0900 -210.2355  361.5672 -204.9861  353.2982 -206.0078  353.0846
  3.010 -221.1739  353.9149 -214.2922  350.9748 -214.3772  351.1614 -222.3387  340.7558 -216.5807  333.8726 -217.5235  333.5516
  3.020 -232.9229  332.3758 -225.8773  330.3665 -225.9753  330.5097 -232.1625  319.5462 -226.1954  314.0442 -227.0434  313.6366
  3.030 -242.0870  310.3028 -235.1300  309.3000 -235.2281  309.4061 -239.6162  298.2465 -233.7206  294.0345 -234.4649  293.5650
  3.040 -248.5705  288.2314 -241.9629  288.1858 -242.0544  288.2643 -244.7269  277.2578 -239.1265  274.1747 -239.7662  273.6685
  3.050 -252.5192  266.7071 -246.4663  267.4735 -246.5498  267.5333 -247.6780  256.9705 -242.5210  254.8211 -243.0623  254.2996
  3.060 -254.2610  246.1538 -248.8858  247.5406 -248.9636  247.5881 -248.7677  237.6793 -244.1312  236.2677 -244.5844  235.7477
  3.070 -254.2010  226.8255 -249.5502  228.6388 -249.6259  228.6770 -248.3383  219.5533 -244.2456  218.7050 -244.6227  218.1979
  3.080 -252.7374  208.8247 -248.8009  210.8931 -248.8782  210.9228 -246.7184  202.6512 -243.1581  202.2213 -243.4710  201.7343
  3.090 -250.2158  192.1461 -246.9480  194.3305 -247.0298  194.3505 -244.1927  186.9529 -241.1338  186.8257 -241.3936  186.3628
  3.100 -246.9151  176.7184 -244.2517  178.9125 -244.3400  178.9206 -240.9923  172.3896 -238.3949  172.4749 -238.6114  172.0378
  3.110 -243.0497  162.4357 -240.9192  164.5620 -241.0150  164.5549 -237.2976  158.8666 -235.1187  159.0949 -235.3005  158.6832
  3.120 -238.7783  149.1775 -237.1086  151.1816 -237.2120  151.1557 -233.2443  146.2775 -231.4413  146.5951 -231.5956  146.2074
  3.130 -234.2134  136.8200 -232.9355  138.6662 -233.0455  138.6173 -228.9303  134.5127 -227.4629  134.8784 -227.5956  134.5119
  3.140 -229.4291  125.2427 -228.4788  126.9098 -228.5933  126.8333 -224.4222  123.4646 -223.2526  123.8468 -223.3679  123.4977
  3.150 -224.4671  114.3324 -223.7858  115.8108 -223.9015  115.7017 -219.7585  113.0303 -218.8525  113.4042 -218.9527  113.0683
  3.160 -219.3409  103.9854 -218.8759  105.2749 -218.9878  105.1283 -214.9534  103.1134 -214.2796  103.4593 -214.3649  103.1323
  3.170 -214.0381   94.1095 -213.7427   95.2186 -213.8435   95.0293 -209.9972   93.6257 -209.5268   93.9273 -209.5947   93.6059
  3.180 -208.5207   84.6269 -208.3553   85.5719 -208.4350   85.3357 -204.8566   84.4896 -204.5619   84.7324 -204.6078   84.4154
  3.190 -202.7254   75.4784 -202.6586   76.2831 -202.7042   75.9972 -199.4730   75.6420 -199.3251   75.8122 -199.3435   75.5025
  3.200 -196.5619   66.6306 -196.5734   67.3253 -196.5683   66.9902 -193.7599   67.0402 -193.7256   67.1260 -193.7122   66.8312
  3.210 -189.9132   58.0883 -189.9974   58.7073 -189.9218   58.3289 -187.6008   58.6743 -187.6388   58.6693 -187.5943   58.4019
  3.220 -182.6406   49.9124 -182.8108   50.4892 -182.6427   50.0814 -180.8500   50.5853 -180.9094   50.4971 -180.8441   50.2709
  3.230 -174.5999   42.2457 -174.8912   42.8033 -174.6101   42.3912 -173.3445   42.8931 -173.3701   42.7560 -173.3062   42.5788
  3.240 -165.6809   35.3370 -166.1471   35.8739 -165.7401   35.4954 -164.9372   35.8291 -164.8880   35.7162 -164.8556   35.5784
  3.250 -155.8752   29.5476 -156.5754   30.0224 -156.0457   29.7260 -155.5658   29.7574 -155.4494   29.7771 -155.4715   29.6430
  3.260 -145.3646   25.3062 -146.3354   25.6314 -145.7112   25.4674 -145.3579   25.1466 -145.2653   25.4053 -145.3325   25.2198
  3.270 -134.5857   22.9882 -135.8073   23.0478 -135.1429   23.0515 -134.7285   22.4492 -134.8312   22.9785 -134.8858   22.6995
  3.280 -124.1945   22.7417 -125.5751   22.4347 -124.9399   22.6108 -124.3744   21.8886 -124.8508   22.5868 -124.8058   22.2287
  3.290 -114.8966   24.3579 -116.2962   23.6472 -115.7526   23.9645 -115.0833   23.2736 -116.0089   23.9302 -115.8061   23.5779
  3.300 -107.2125   27.2980 -108.4981   26.2252 -108.0816   26.6289 -107.4291   26.0120 -108.7276   26.4181 -108.3890   26.1824
  3.310 -101.3274   30.8735 -102.4172   29.5279 -102.1315   29.9611 -101.5739   29.3537 -103.0744   29.4024 -102.6973   29.3485
  3.320  -97.1005   34.4601  -97.9665   32.9330  -97.7933   33.3518  -97.3134   32.6752  -98.8492   32.3755  -98.5466   32.4829
  3.330  -94.1836   37.6323  -94.8261   35.9965  -94.7361   36.3735  -94.2741   35.6152  -95.7405   35.0394  -95.5752   35.2210
  3.340  -92.1626   40.2027  -92.5950   38.5191  -92.5553   38.8449  -92.0927   38.0441  -93.4473   37.2707  -93.4057   37.4326
  3.350  -90.6863   42.1911  -90.9386   40.5098  -90.9227   40.7924  -90.4978   39.9654  -91.7328   39.0514  -91.7517   39.1457
  3.360  -89.5525   43.7248  -89.6669   42.0711  -89.6641   42.3266  -89.3135   41.4293  -90.4298   40.4090  -90.4473   40.4445
  3.370  -88.7006   44.9109  -88.7080   43.2848  -88.7215   43.5230  -88.4294   42.4853  -89.4240   41.3814  -89.4123   41.3962
  3.380  -88.1193   45.7748  -88.0298   44.1714  -88.0647   44.3914  -87.7681   43.1670  -88.6328   42.0018  -88.5981   42.0301
  3.390  -87.7709   46.2899  -87.5842   44.7151  -87.6403   44.9106  -87.2621   43.4964  -87.9894   42.2968  -87.9532   42.3532
  3.400  -87.5782   46.4316  -87.2973   44.9007  -87.3685   45.0664  -86.8450   43.4941  -87.4332   42.2913  -87.4155   42.3721
  3.410  -87.4468   46.2048  -87.0828   44.7355  -87.1610   44.8699  -86.4521   43.1884  -86.9086   42.0138  -86.9197   42.1065
  3.420  -87.2891   45.6458  -86.8599   44.2520  -86.9374   44.3571  -86.0259   42.6188  -86.3665   41.4996  -86.4072   41.5904
  3.430  -87.0382   44.8122  -86.5647   43.5012  -86.6360   43.5811  -85.5216   41.8338  -85.7679   40.7898  -85.8328   40.8688
  3.440  -86.6518   43.7704  -86.1547   42.5432  -86.2163   42.6030  -84.9104   40.8862  -85.0859   39.9289  -85.1671   39.9909
  3.450  -86.1102   42.5856  -85.6077   41.4383  -85.6581   41.4826  -84.1788   39.8272  -84.3060   38.9610  -84.3960   39.0047
  3.460  -85.4113   41.3156  -84.9183   40.2411  -84.9573   40.2739  -83.3258   38.7022  -83.4243   37.9258  -83.5169   37.9527
  3.470  -84.5648   40.0076  -84.0928   38.9971  -84.1209   39.0216  -82.3594   37.5489  -82.4449   36.8575  -82.5358   36.8703
  3.480  -83.5870   38.6981  -83.1442   37.7421  -83.1624   37.7606  -81.2926   36.3962  -81.3771   35.7833  -81.4638   35.7850
  3.490  -82.4975   37.4135  -82.0895   36.5029  -82.0988   36.5172  -80.1408   35.2655  -80.2328   34.7239  -80.3139   34.7175
  3.500  -81.3159   36.1720  -80.9464   35.2982  -80.9478   35.3097  -78.9196   34.1716  -79.0251   33.6943  -79.1002   33.6823
  3.510  -80.0610   34.9855  -79.7318   34.1409  -79.7263   34.1503  -77.6438   33.1241  -77.7666   32.7048  -77.8359   32.6893
  3.520  -78.7493   33.8610  -78.4616   33.0388  -78.4500   33.0467  -76.3267   32.1287  -76.4693   31.7619  -76.5331   31.7445
  3.530  -77.3955   32.8019  -77.1493   31.9963  -77.1324   32.0031  -74.9797   31.1884  -75.1434   30.8696  -75.2024   30.8514
  3.540  -76.0117   31.8094  -75.8070   31.0152  -75.7852   31.0213  -73.6127   30.3041  -73.7982   30.0296  -73.8529   30.0115
  3.550  -74.6082   30.8829  -74.4445   30.0957  -74.4184   30.1012  -72.2337   29.4754  -72.4413   29.2424  -72.4923   29.2250
  3.560  -73.1934   30.0207  -73.0702   29.2368  -73.0401   29.2418  -70.8495   28.7011  -71.0791   28.5073  -71.1270   28.4910
  3.570  -71.7743   29.2207  -71.6910   28.4366  -71.6572   28.4413  -69.4655   27.9793  -69.7171   27.8231  -69.7623   27.8083
  3.580  -70.3564   28.4802  -70.3124   27.6930  -70.2752   27.6973  -68.0861   27.3079  -68.3595   27.1883  -68.4025   27.1750
  3.590  -68.9441   27.7965  -68.9390   27.0034  -68.8985   27.0074  -66.7147   26.6846  -67.0099   26.6010  -67.0511   26.5894
  3.600  -67.5411   27.1667  -67.5744   26.3653  -67.5309   26.3691  -65.3543   26.1072  -65.6712   26.0593  -65.7109   26.0494
  3.610  -66.1502   26.5881  -66.2217   25.7759  -66.1752   25.7795  -64.0068   25.5732  -64.3456   25.5611  -64.3842   25.5530
  3.620  -64.7736   26.0580  -64.8830   25.2328  -64.8336   25.2363  -62.6740   25.0805  -63.0350   25.1045  -63.0727   25.0982
  3.630  -63.4129   25.5740  -63.5603   24.7336  -63.5080   24.7369  -61.3571   24.6270  -61.7408   24.6877  -61.7778   24.6831
  3.640  -62.0695   25.1338  -62.2548   24.2757  -62.1998   24.2789  -60.0571   24.2105  -60.4641   24.3088  -60.5006   24.3059
  3.650  -60.7443   24.7351  -60.9677   23.8570  -60.9098   23.8602  -58.7744   23.8294  -59.2056   23.9662  -59.2417   23.9648
  3.660  -59.4381   24.3759  -59.6996   23.4755  -59.6390   23.4787  -57.5096   23.4816  -57.9659   23.6582  -58.0018   23.6583
  3.670  -58.1511   24.0545  -58.4510   23.1291  -58.3876   23.1324  -56.2626   23.1658  -56.7454   23.3834  -56.7811   23.3850
  3.680  -56.8837   23.7691  -57.2222   22.8161  -57.1560   22.8196  -55.0336   22.8803  -55.5443   23.1404  -55.5799   23.1433
  3.690  -55.6360   23.5184  -56.0133   22.5348  -55.9443   22.5385  -53.8223   22.6239  -54.3627   22.9280  -54.3983   22.9322
  3.700  -54.4080   23.3009  -54.8243   22.2837  -54.7523   22.2877  -52.6286   22.3952  -53.2006   22.7451  -53.2362   22.7505
  3.710  -53.1995   23.1155  -53.6549   22.0614  -53.5800   22.0657  -51.4519   22.1932  -52.0578   22.5908  -52.0935   22.5972
  3.720  -52.0104   22.9612  -52.5049   21.8666  -52.4271   21.8714  -50.2918   22.0170  -50.9342   22.4641  -50.9700   22.4715
  3.730  -50.8405   22.8371  -51.3739   21.6983  -51.2931   21.7036  -49.1479   21.8657  -49.8296   22.3643  -49.8654   22.3726
  3.740  -49.6894   22.7425  -50.2615   21.5554  -50.1777   21.5613  -48.0194   21.7387  -48.7438   22.2908  -48.7795   22.2999
  3.750  -48.5570   22.6769  -49.1672   21.4370  -49.0803   21.4437  -46.9058   21.6352  -47.6764   22.2430  -47.7121   22.2529
  3.760  -47.4428   22.6397  -48.0904   21.3426  -48.0003   21.3501  -45.8063   21.5550  -46.6272   22.2206  -46.6627   22.2312
  3.770  -46.3468   22.6308  -47.0306   21.2714  -46.9372   21.2799  -44.7202   21.4977  -45.5960   22.2234  -45.6312   22.2345
  3.780  -45.2685   22.6498  -45.9871   21.2230  -45.8904   21.2326  -43.6468   21.4631  -44.5824   22.2510  -44.6173   22.2627
  3.790  -44.2080   22.6968  -44.9592   21.1970  -44.8592   21.2079  -42.5853   21.4511  -43.5864   22.3034  -43.6207   22.3157
  3.800  -43.1650   22.7718  -43.9464   21.1934  -43.8429   21.2057  -41.5350   21.4620  -42.6077   22.3808  -42.6413   22.3937
  3.810  -42.1395   22.8748  -42.9480   21.2120  -42.8410   21.2259  -40.4951   21.4960  -41.6463   22.4830  -41.6790   22.4966
  3.820  -41.1315   23.0063  -41.9634   21.2529  -41.8527   21.2686  -39.4647   21.5533  -40.7020   22.6104  -40.7336   22.6248
  3.830  -40.1413   23.1663  -40.9919   21.3164  -40.8774   21.3340  -38.4434   21.6346  -39.7750   22.7633  -39.8053   22.7785
  3.840  -39.1691   23.3554  -40.0329   21.4028  -39.9146   21.4226  -37.4302   21.7407  -38.8652   22.9419  -38.8942   22.9582
  3.850  -38.2152   23.5738  -39.0858   21.5126  -38.9637   21.5348  -36.4245   21.8723  -37.9730   23.1467  -38.0004   23.1644
  3.860  -37.2800   23.8220  -38.1502   21.6466  -38.0241   21.6714  -35.4258   22.0305  -37.0986   23.3782  -37.1243   23.3974
  3.870  -36.3643   24.1004  -37.2257   21.8056  -37.0954   21.8334  -34.4335   22.2166  -36.2423   23.6367  -36.2663   23.6579
  3.880  -35.4685   24.4094  -36.3118   21.9907  -36.1773   22.0217  -33.4472   22.4319  -35.4045   23.9230  -35.4269   23.9464
  3.890  -34.5935   24.7492  -35.4082   22.2032  -35.2695   22.2377  -32.4664   22.6782  -34.5858   24.2376  -34.6066   24.2635
  3.900  -33.7398   25.1203  -34.5150   22.4444  -34.3718   22.4829  -31.4910   22.9573  -33.7868   24.5811  -33.8062   24.6099
  3.910  -32.9084   25.5229  -33.6320   22.7161  -33.4843   22.7589  -30.5207   23.2712  -33.0081   24.9543  -33.0263   24.9862
  3.920  -32.0998   25.9574  -32.7594   23.0201  -32.6072   23.0677  -29.5558   23.6224  -32.2504   25.3581  -32.2677   25.3931
  3.930  -31.3146   26.4240  -31.8978   23.3587  -31.7410   23.4116  -28.5963   24.0134  -31.5145   25.7933  -31.5313   25.8316
  3.940  -30.5534   26.9234  -31.0479   23.7341  -30.8864   23.7928  -27.6430   24.4472  -30.8014   26.2612  -30.8178   26.3025
  3.950  -29.8165   27.4563  -30.2107   24.1490  -30.0444   24.2143  -26.6965   24.9270  -30.1120   26.7630  -30.1282   26.8072
  3.960  -29.1042   28.0238  -29.3876   24.6063  -29.2167   24.6788  -25.7580   25.4563  -29.4476   27.3004  -29.4636   27.3470
  3.970  -28.4168   28.6275  -28.5807   25.1092  -28.4052   25.1896  -24.8291   26.0390  -28.8098   27.8753  -28.8253   27.9239
  3.980  -27.7549   29.2697  -27.7924   25.6609  -27.6124   25.7502  -23.9120   26.6793  -28.2004   28.4900  -28.2148   28.5403
  3.990  -27.1192   29.9535  -27.0261   26.2650  -26.8419   26.3641  -23.0092   27.3818  -27.6221   29.1470  -27.6344   29.1989
  4.000  -26.5113   30.6826  -26.2857   26.9251  -26.0976   27.0351  -22.1244   28.1513  -27.0780   29.8495  -27.0872   29.9030
  4.010  -25.9337   31.4616  -25.5764   27.6448  -25.3848   27.7669  -21.2616   28.9933  -26.5725   30.6004  -26.5772   30.6565
  4.020  -25.3901   32.2960  -24.9040   28.4277  -24.7097   28.5631  -20.4264   29.9130  -26.1112   31.4032  -26.1099   31.4630
  4.030  -24.8863   33.1913  -24.2760   29.2771  -24.0798   29.4270  -19.6252   30.9164  -25.7008   32.2610  -25.6926   32.3265
  4.040  -24.4298   34.1535  -23.7009   30.1955  -23.5040   30.3615  -18.8661   32.0091  -25.3500   33.1765  -25.3343   33.2502
  4.050  -24.0306   35.1879  -23.1887   31.1850  -22.9927   31.3684  -18.1587   33.1971  -25.0693   34.1513  -25.0462   34.2364
  4.060  -23.7014   36.2989  -22.7511   32.2462  -22.5577   32.4483  -17.5148   34.4856  -24.8711   35.1860  -24.8417   35.2856
  4.070  -23.4575   37.4894  -22.4010   33.3782  -22.2124   33.6002  -16.9481   35.8795  -24.7695   36.2786  -24.7360   36.3959
  4.080  -23.3167   38.7593  -22.1526   34.5780  -21.9717   34.8210  -16.4751   37.3826  -24.7806   37.4245  -24.7461   37.5623
  4.090  -23.2992   40.1056  -22.0214   35.8399  -21.8512   36.1045  -16.1147   38.9967  -24.9215   38.6156  -24.8902   38.7757
  4.100  -23.4268   41.5207  -22.0234   37.1550  -21.8675   37.4415  -15.8890   40.7216  -25.2098   39.8390  -25.1865   40.0223
  4.110  -23.7226   42.9919  -22.1746   38.5110  -22.0371   38.8190  -15.8226   42.5533  -25.6625   41.0770  -25.6523   41.2829
  4.120  -24.2093   44.5005  -22.4902   39.8915  -22.3753   40.2196  -15.9432   44.4835  -26.2947   42.3062  -26.3024   42.5328
  4.130  -24.9080   46.0210  -22.9837   41.2757  -22.8958   41.6219  -16.2801   46.4981  -27.1173   43.4979  -27.1472   43.7418
  4.140  -25.8360   47.5215  -23.6657   42.6389  -23.6090   43.0001  -16.8643   48.5756  -28.1358   44.6183  -28.1913   44.8752
  4.150  -27.0052   48.9633  -24.5425   43.9529  -24.5211   44.3245  -17.7258   50.6862  -29.3480   45.6299  -29.4309   45.8949
  4.160  -28.4196   50.3026  -25.6155   45.1860  -25.6325   45.5627  -18.8921   52.7903  -30.7422   46.4939  -30.8532   46.7619
  4.170  -30.0732   51.4919  -26.8798   46.3051  -26.9372   46.6805  -20.3849   54.8384  -32.2970   47.1728  -32.4354   47.4389
  4.180  -31.9485   52.4829  -28.3234   47.2763  -28.4220   47.6432  -22.2166   56.7710  -33.9807   47.6334  -34.1448   47.8933
  4.190  -34.0162   53.2299  -29.9270   48.0669  -30.0658   48.4180  -24.3864   58.5212  -35.7531   47.8504  -35.9405   48.1006
  4.200  -36.2353   53.6927  -31.6637   48.6473  -31.8400   48.9752  -26.8771   60.0172  -37.5682   47.8085  -37.7758   48.0464
  4.210  -38.5545   53.8409  -33.4998   48.9929  -33.7092   49.2910  -29.6518   61.1882  -39.3769   47.5045  -39.6016   47.7283
  4.220  -40.9154   53.6561  -35.3957   49.0861  -35.6323   49.3490  -32.6539   61.9700  -41.1312   46.9471  -41.3701   47.1556
  4.230  -43.2559   53.1343  -37.3076   48.9180  -37.5644   49.1417  -35.8086   62.3123  -42.7880   46.1559  -43.0380   46.3488
  4.240  -45.5146   52.2861  -39.1901   48.4895  -39.4594   48.6721  -39.0275   62.1847  -44.3112   45.1593  -44.5696   45.3366
  4.250  -47.6348   51.1364  -40.9989   47.8119  -41.2732   47.9531  -42.2154   61.5807  -45.6738   43.9916  -45.9382   44.1537
  4.260  -49.5680   49.7218  -42.6938   46.9061  -42.9658   47.0074  -45.2787   60.5192  -46.8586   42.6897  -47.1268   42.8375
  4.270  -51.2774   48.0876  -44.2409   45.8011  -44.5045   45.8653  -48.1331   59.0421  -47.8574   41.2906  -48.1276   41.4252
  4.280  -52.7384   46.2841  -45.6150   44.5313  -45.8650   44.5626  -50.7105   57.2098  -48.6701   39.8290  -48.9407   39.9516
  4.290  -53.9394   44.3628  -46.7998   43.1346  -47.0325   43.1374  -52.9626   55.0943  -49.3028   38.3358  -49.5727   38.4480
  4.300  -54.8802   42.3728  -47.7886   41.6485  -48.0015   41.6276  -54.8622   52.7722  -49.7663   36.8376  -50.0349   36.9406
  4.310  -55.5706   40.3583  -48.5824   40.1085  -48.7742   40.0687  -56.4018   50.3184  -50.0746   35.3558  -50.3413   35.4511
  4.320  -56.0274   38.3570  -49.1890   38.5465  -49.3594   38.4921  -57.5905   47.8011  -50.2431   33.9072  -50.5077   33.9960
  4.330  -56.2723   36.3995  -49.6209   36.9893  -49.7703   36.9240  -58.4495   45.2785  -50.2878   32.5044  -50.5503   32.5879
  4.340  -56.3296   34.5089  -49.8938   35.4583  -50.0232   35.3855  -59.0087   42.7978  -50.2246   31.1563  -50.4852   31.2355
  4.350  -56.2244   32.7017  -50.0249   33.9703  -50.1356   33.8925  -59.3019   40.3950  -50.0683   29.8685  -50.3273   29.9443
  4.360  -55.9809   30.9887  -50.0318   32.5371  -50.1252   32.4566  -59.3648   38.0958  -49.8326   28.6444  -50.0904   28.7174
  4.370  -55.6221   29.3758  -49.9315   31.1668  -50.0091   31.0852  -59.2322   35.9169  -49.5302   27.4852  -49.7871   27.5561
  4.380  -55.1686   27.8654  -49.7399   29.8642  -49.8033   29.7827  -58.9365   33.8681  -49.1720   26.3908  -49.4285   26.4600
  4.390  -54.6388   26.4567  -49.4716   28.6314  -49.5221   28.5510  -58.5074   31.9530  -48.7678   25.3599  -49.0242   25.4278
  4.400  -54.0487   25.1470  -49.1395   27.4689  -49.1785   27.3901  -57.9707   30.1716  -48.3261   24.3906  -48.5828   24.4574
  4.410  -53.4118   23.9324  -48.7548   26.3755  -48.7836   26.2987  -57.3490   28.5203  -47.8540   23.4804  -48.1114   23.5464
  4.420  -52.7398   22.8078  -48.3275   25.3491  -48.3472   25.2745  -56.6615   26.9938  -47.3578   22.6263  -47.6163   22.6917
  4.430  -52.0422   21.7679  -47.8660   24.3869  -47.8774   24.3146  -55.9243   25.5854  -46.8429   21.8256  -47.1028   21.8904
  4.440  -51.3271   20.8070  -47.3774   23.4858  -47.3814   23.4158  -55.1508   24.2878  -46.3137   21.0750  -46.5752   21.1394
  4.450  -50.6009   19.9195  -46.8678   22.6424  -46.8650   22.5746  -54.3521   23.0933  -45.7739   20.3717  -46.0375   20.4357
  4.460  -49.8690   19.0999  -46.3422   21.8533  -46.3333   21.7876  -53.5370   21.9942  -45.2268   19.7127  -45.4926   19.7763
  4.470  -49.1356   18.3430  -45.8049   21.1151  -45.7904   21.0513  -52.7130   20.9831  -44.6750   19.0951  -44.9433   19.1585
  4.480  -48.4042   17.6438  -45.2595   20.4244  -45.2397   20.3624  -51.8858   20.0529  -44.1208   18.5163  -44.3917   18.5794
  4.490  -47.6774   16.9978  -44.7088   19.7781  -44.6841   19.7177  -51.0601   19.1970  -43.5658   17.9738  -43.8397   18.0366
  4.500  -46.9575   16.4006  -44.1552   19.1732  -44.1259   19.1142  -50.2395   18.4091  -43.0117   17.4651  -43.2888   17.5277
  4.510  -46.2460   15.8484  -43.6008   18.6069  -43.5672   18.5491  -49.4268   17.6836  -42.4597   16.9881  -42.7401   17.0505
  4.520  -45.5441   15.3374  -43.0472   18.0766  -43.0093   18.0198  -48.6243   17.0150  -41.9108   16.5407  -42.1948   16.6029
  4.530  -44.8529   14.8645  -42.4957   17.5797  -42.4537   17.5238  -47.8335   16.3988  -41.3658   16.1211  -41.6535   16.1831
  4.540  -44.1729   14.4266  -41.9474   17.1142  -41.9013   17.0589  -47.0557   15.8304  -40.8253   15.7273  -41.1170   15.7891
  4.550  -43.5046   14.0210  -41.4032   16.6777  -41.3531   16.6231  -46.2916   15.3059  -40.2900   15.3579  -40.5859   15.4195
  4.560  -42.8482   13.6451  -40.8636   16.2686  -40.8096   16.2143  -45.5419   14.8217  -39.7601   15.0113  -40.0604   15.0726
  4.570  -42.2040   13.2968  -40.3294   15.8849  -40.2715   15.8309  -44.8069   14.3744  -39.2361   14.6860  -39.5410   14.7472
  4.580  -41.5718   12.9740  -39.8009   15.5250  -39.7390   15.4713  -44.0868   13.9613  -38.7181   14.3810  -39.0278   14.4418
  4.590  -40.9518   12.6748  -39.2784   15.1876  -39.2125   15.1339  -43.3815   13.5795  -38.2064   14.0948  -38.5211   14.1555
  4.600  -40.3437   12.3976  -38.7622   14.8711  -38.6922   14.8174  -42.6909   13.2267  -37.7009   13.8266  -38.0210   13.8870
  4.610  -39.7474   12.1407  -38.2524   14.5743  -38.1783   14.5206  -42.0150   12.9006  -37.2019   13.5753  -37.5275   13.6354
  4.620  -39.1627   11.9030  -37.7492   14.2962  -37.6709   14.2423  -41.3533   12.5994  -36.7093   13.3399  -37.0407   13.3997
  4.630  -38.5893   11.6829  -37.2527   14.0356  -37.1700   13.9815  -40.7057   12.3212  -36.2232   13.1197  -36.5606   13.1791
  4.640  -38.0270   11.4795  -36.7628   13.7915  -36.6756   13.7372  -40.0718   12.0643  -35.7434   12.9138  -36.0871   12.9729
  4.650  -37.4755   11.2918  -36.2795   13.5631  -36.1878   13.5086  -39.4513   11.8275  -35.2700   12.7217  -35.6204   12.7804
  4.660  -36.9345   11.1186  -35.8029   13.3496  -35.7065   13.2947  -38.8438   11.6092  -34.8030   12.5425  -35.1602   12.6008
  4.670  -36.4037   10.9593  -35.3329   13.1503  -35.2316   13.0950  -38.2488   11.4084  -34.3421   12.3758  -34.7065   12.4335
  4.680  -35.8829   10.8130  -34.8695   12.9643  -34.7631   12.9087  -37.6661   11.2239  -33.8874   12.2210  -34.2594   12.2782
  4.690  -35.3718   10.6791  -34.4125   12.7912  -34.3010   12.7352  -37.0952   11.0549  -33.4387   12.0776  -33.8186   12.1341
  4.700  -34.8700   10.5568  -33.9619   12.6303  -33.8450   12.5739  -36.5358   10.9003  -32.9960   11.9451  -33.3841   12.0009
  4.710  -34.3774   10.4457  -33.5176   12.4811  -33.3951   12.4243  -35.9875   10.7594  -32.5592   11.8232  -32.9559   11.8781
  4.720  -33.8937   10.3452  -33.0795   12.3431  -32.9512   12.2859  -35.4499   10.6314  -32.1281   11.7114  -32.5338   11.7654
  4.730  -33.4185   10.2547  -32.6476   12.2159  -32.5133   12.1584  -34.9227   10.5158  -31.7027   11.6094  -32.1178   11.6624
  4.740  -32.9517   10.1740  -32.2216   12.0991  -32.0811   12.0413  -34.4056   10.4119  -31.2829   11.5169  -31.7078   11.5687
  4.750  -32.4930   10.1025  -31.8016   11.9922  -31.6546   11.9342  -33.8982   10.3191  -30.8685   11.4336  -31.3037   11.4841
  4.760  -32.0423   10.0400  -31.3875   11.8951  -31.2337   11.8368  -33.4002   10.2371  -30.4594   11.3593  -30.9055   11.4082
  4.770  -31.5992    9.9861  -30.9791   11.8073  -30.8182   11.7489  -32.9113   10.1653  -30.0557   11.2936  -30.5130   11.3409
  4.780  -31.1635    9.9405  -30.5763   11.7286  -30.4082   11.6701  -32.4313   10.1034  -29.6571   11.2365  -30.1263   11.2819
  4.790  -30.7352    9.9030  -30.1792   11.6587  -30.0034   11.6002  -31.9598   10.0511  -29.2636   11.1877  -29.7452   11.2310
  4.800  -30.3140    9.8732  -29.7875   11.5974  -29.6038   11.5390  -31.4967   10.0079  -28.8751   11.1471  -29.3697   11.1879
  4.810  -29.8997    9.8511  -29.4013   11.5444  -29.2092   11.4862  -31.0416    9.9737  -28.4915   11.1145  -28.9998   11.1526
  4.820  -29.4921    9.8364  -29.0204   11.4997  -28.8197   11.4418  -30.5943    9.9482  -28.1129   11.0898  -28.6354   11.1249
  4.830  -29.0912    9.8289  -28.6448   11.4629  -28.4351   11.4055  -30.1547    9.9311  -27.7390   11.0729  -28.2765   11.1046
  4.840  -28.6968    9.8285  -28.2745   11.4340  -28.0553   11.3772  -29.7225    9.9222  -27.3698   11.0637  -27.9231   11.0915
  4.850  -28.3087    9.8350  -27.9093   11.4128  -27.6802   11.3568  -29.2976    9.9215  -27.0054   11.0621  -27.5751   11.0857
  4.860  -27.9268    9.8483  -27.5493   11.3991  -27.3098   11.3443  -28.8797    9.9287  -26.6456   11.0681  -27.2326   11.0868
  4.870  -27.5510    9.8684  -27.1944   11.3930  -26.9440   11.3394  -28.4687    9.9438  -26.2904   11.0817  -26.8956   11.0950
  4.880  -27.1811    9.8950  -26.8445   11.3942  -26.5828   11.3421  -28.0644    9.9665  -25.9397   11.1027  -26.5640   11.1099
  4.890  -26.8172    9.9282  -26.4996   11.4027  -26.2260   11.3525  -27.6668    9.9969  -25.5936   11.1312  -26.2380   11.1317
  4.900  -26.4590    9.9678  -26.1597   11.4184  -25.8736   11.3704  -27.2756   10.0349  -25.2520   11.1673  -25.9174   11.1601
  4.910  -26.1065   10.0139  -25.8248   11.4413  -25.5256   11.3959  -26.8908   10.0805  -24.9149   11.2108  -25.6024   11.1952
  4.920  -25.7596   10.0663  -25.4948   11.4713  -25.1819   11.4289  -26.5123   10.1335  -24.5822   11.2620  -25.2929   11.2368
  4.930  -25.4182   10.1250  -25.1697   11.5083  -24.8424   11.4694  -26.1399   10.1941  -24.2541   11.3207  -24.9892   11.2848
  4.940  -25.0822   10.1901  -24.8496   11.5524  -24.5071   11.5176  -25.7735   10.2622  -23.9304   11.3871  -24.6911   11.3393
  4.950  -24.7516   10.2615  -24.5343   11.6036  -24.1760   11.5734  -25.4132   10.3378  -23.6113   11.4614  -24.3987   11.4000
  4.960  -24.4262   10.3393  -24.2239   11.6618  -23.8490   11.6370  -25.0588   10.4211  -23.2967   11.5435  -24.1122   11.4671
  4.970  -24.1060   10.4234  -23.9183   11.7271  -23.5260   11.7085  -24.7102   10.5122  -22.9867   11.6337  -23.8315   11.5404
  4.980  -23.7908   10.5140  -23.6176   11.7996  -23.2071   11.7880  -24.3674   10.6110  -22.6812   11.7321  -23.5568   11.6198
  4.990  -23.4807   10.6112  -23.3218   11.8792  -22.8923   11.8757  -24.0304   10.7179  -22.3805   11.8389  -23.2882   11.7053
  5.000  -23.1755   10.7151  -23.0309   11.9662  -22.5814   11.9718  -23.6992   10.8329  -22.0846   11.9543  -23.0257   11.7969
  5.010  -22.8751   10.8258  -22.7449   12.0605  -22.2745   12.0766  -23.3737   10.9563  -21.7935   12.0786  -22.7693   11.8944
  5.020  -22.5795   10.9436  -22.4638   12.1625  -21.9717   12.1903  -23.0540   11.0884  -21.5074   12.2121  -22.5193   11.9979
  5.030  -22.2886   11.0687  -22.1876   12.2723  -21.6729   12.3133  -22.7402   11.2295  -21.2266   12.3552  -22.2756   12.1073
  5.040  -22.0024   11.2014  -21.9164   12.3900  -21.3783   12.4461  -22.4323   11.3798  -20.9511   12.5081  -22.0384   12.2226
  5.050  -21.7208   11.3422  -21.6504   12.5161  -21.0879   12.5891  -22.1305   11.5399  -20.6813   12.6714  -21.8076   12.3437
  5.060  -21.4440   11.4914  -21.3896   12.6509  -20.8020   12.7429  -21.8350   11.7102  -20.4176   12.8455  -21.5835   12.4707
  5.070  -21.1719   11.6497  -21.1342   12.7947  -20.5208   12.9080  -21.5460   11.8913  -20.1603   13.0310  -21.3661   12.6035
  5.080  -20.9047   11.8176  -20.8845   12.9481  -20.2445   13.0852  -21.2640   12.0837  -19.9101   13.2285  -21.1555   12.7422
  5.090  -20.6428   11.9959  -20.6407   13.1115  -19.9737   13.2751  -20.9895   12.2882  -19.6675   13.4385  -20.9517   12.8869
  5.100  -20.3864   12.1854  -20.4034   13.2855  -19.7090   13.4788  -20.7231   12.5055  -19.4334   13.6618  -20.7550   13.0377
  5.110  -20.1363   12.3871  -20.1732   13.4707  -19.4511   13.6969  -20.4657   12.7363  -19.2088   13.8989  -20.5654   13.1946
  5.120  -19.8931   12.6018  -19.9507   13.6679  -19.2009   13.9305  -20.2183   12.9813  -18.9949   14.1506  -20.3832   13.3580
  5.130  -19.6580   12.8305  -19.7371   13.8777  -18.9596   14.1805  -19.9823   13.2415  -18.7931   14.4174  -20.2085   13.5279
  5.140  -19.4323   13.0743  -19.5333   14.1006  -18.7287   14.4478  -19.7592   13.5173  -18.6052   14.6997  -20.0418   13.7047
  5.150  -19.2177   13.3340  -19.3410   14.3372  -18.5099   14.7333  -19.5511   13.8094  -18.4332   14.9980  -19.8833   13.8886
  5.160  -19.0162   13.6102  -19.1617   14.5880  -18.3052   15.0378  -19.3600   14.1181  -18.2792   15.3122  -19.7335   14.0799
  5.170  -18.8304   13.9036  -18.9974   14.8530  -18.1171   15.3618  -19.1886   14.4433  -18.1457   15.6421  -19.5931   14.2791
  5.180  -18.6630   14.2139  -18.8504   15.1320  -17.9484   15.7055  -19.0397   14.7846  -18.0355   15.9870  -19.4629   14.4863
  5.190  -18.5170   14.5408  -18.7229   15.4246  -17.8020   16.0688  -18.9162   15.1410  -17.9514   16.3459  -19.3437   14.7019
  5.200  -18.3956   14.8831  -18.6174   15.7297  -17.6813   16.4512  -18.8213   15.5109  -17.8962   16.7169  -19.2367   14.9259
  5.210  -18.3020   15.2389  -18.5363   16.0458  -17.5898   16.8514  -18.7580   15.8921  -17.8727   17.0976  -19.1431   15.1585
  5.220  -18.2391   15.6057  -18.4818   16.3707  -17.5312   17.2675  -18.7289   16.2814  -17.8835   17.4853  -19.0644   15.3996
  5.230  -18.2096   15.9800  -18.4560   16.7019  -17.5089   17.6971  -18.7365   16.6753  -17.9306   17.8762  -19.0021   15.6486
  5.240  -18.2153   16.3581  -18.4603   17.0365  -17.5263   18.1366  -18.7824   17.0695  -18.0157   18.2664  -18.9579   15.9050
  5.250  -18.2573   16.7355  -18.4957   17.3710  -17.5863   18.5819  -18.8675   17.4593  -18.1396   18.6513  -18.9335   16.1676
  5.260  -18.3360   17.1076  -18.5626   17.7021  -17.6912   19.0283  -18.9919   17.8398  -18.3023   19.0262  -18.9305   16.4353
  5.270  -18.4508   17.4701  -18.6607   18.0261  -17.8426   19.4704  -19.1545   18.2061  -18.5032   19.3865  -18.9505   16.7062
  5.280  -18.6001   17.8186  -18.7893   18.3399  -18.0410   19.9023  -19.3536   18.5536  -18.7408   19.7274  -18.9948   16.9782
  5.290  -18.7819   18.1494  -18.9471   18.6402  -18.2861   20.3181  -19.5866   18.8782  -19.0125   20.0449  -19.0644   17.2491
  5.300  -18.9935   18.4591  -19.1322   18.9244  -18.5764   20.7117  -19.8503   19.1763  -19.3156   20.3350  -19.1600   17.5161
  5.310  -19.2319   18.7453  -19.3429   19.1899  -18.9095   21.0775  -20.1411   19.4449  -19.6464   20.5947  -19.2819   17.7764
  5.320  -19.4939   19.0059  -19.5768   19.4348  -19.2820   21.4101  -20.4549   19.6820  -20.0012   20.8213  -19.4299   18.0273
  5.330  -19.7764   19.2396  -19.8317   19.6574  -19.6896   21.7050  -20.7879   19.8862  -20.3759   21.0131  -19.6035   18.2657
  5.340  -20.0762   19.4456  -20.1052   19.8564  -20.1274   21.9583  -21.1361   20.0566  -20.7664   21.1690  -19.8014   18.4890
  5.350  -20.3905   19.6233  -20.3950   20.0308  -20.5901   22.1672  -21.4958   20.1930  -21.1686   21.2882  -20.0224   18.6944
  5.360  -20.7166   19.7726  -20.6988   20.1797  -21.0720   22.3295  -21.8634   20.2957  -21.5787   21.3708  -20.2644   18.8796
  5.370  -21.0519   19.8935  -21.0143   20.3026  -21.5675   22.4443  -22.2359   20.3653  -21.9929   21.4173  -20.5254   19.0424
  5.380  -21.3943   19.9864  -21.3393   20.3992  -22.0709   22.5111  -22.6103   20.4027  -22.4079   21.4285  -20.8029   19.1812
  5.390  -21.7415   20.0516  -21.6716   20.4693  -22.5768   22.5307  -22.9839   20.4089  -22.8206   21.4054  -21.0944   19.2946
  5.400  -22.0916   20.0894  -22.0092   20.5128  -23.0803   22.5042  -23.3546   20.3853  -23.2282   21.3496  -21.3972   19.3816
  5.410  -22.4427   20.1005  -22.3499   20.5299  -23.5765   22.4334  -23.7201   20.3331  -23.6281   21.2627  -21.7085   19.4414
  5.420  -22.7931   20.0854  -22.6917   20.5209  -24.0615   22.3209  -24.0788   20.2538  -24.0182   21.1462  -22.0256   19.4740
  5.430  -23.1412   20.0448  -23.0327   20.4862  -24.5315   22.1691  -24.4289   20.1487  -24.3965   21.0022  -22.3458   19.4792
  5.440  -23.4853   19.9793  -23.3712   20.4264  -24.9834   21.9812  -24.7691   20.0193  -24.7613   20.8324  -22.6667   19.4575
  5.450  -23.8238   19.8897  -23.7052   20.3423  -25.4148   21.7603  -25.0980   19.8671  -25.1113   20.6388  -22.9857   19.4096
  5.460  -24.1553   19.7769  -24.0331   20.2345  -25.8234   21.5097  -25.4145   19.6935  -25.4452   20.4234  -23.3007   19.3362
  5.470  -24.4784   19.6418  -24.3534   20.1042  -26.2077   21.2326  -25.7177   19.5001  -25.7621   20.1880  -23.6096   19.2386
  5.480  -24.7918   19.4854  -24.6645   19.9523  -26.5666   20.9323  -26.0065   19.2882  -26.0611   19.9346  -23.9105   19.1179
  5.490  -25.0942   19.3089  -24.9652   19.7801  -26.8992   20.6120  -26.2804   19.0595  -26.3417   19.6650  -24.2019   18.9755
  5.500  -25.3845   19.1134  -25.2542   19.5887  -27.2053   20.2748  -26.5387   18.8153  -26.6035   19.3811  -24.4823   18.8130
  5.510  -25.6616   18.9001  -25.5305   19.3794  -27.4847   19.9235  -26.7808   18.5571  -26.8462   19.0848  -24.7505   18.6318
  5.520  -25.9247   18.6704  -25.7931   19.1537  -27.7377   19.5608  -27.0063   18.2864  -27.0696   18.7775  -25.0055   18.4336
  5.530  -26.1729   18.4256  -26.0413   18.9130  -27.9647   19.1892  -27.2150   18.0046  -27.2737   18.4611  -25.2465   18.2199
  5.540  -26.4055   18.1672  -26.2743   18.6586  -28.1663   18.8111  -27.4066   17.7131  -27.4588   18.1371  -25.4730   17.9923
  5.550  -26.6221   17.8965  -26.4918   18.3920  -28.3434   18.4285  -27.5811   17.4133  -27.6249   17.8070  -25.6844   17.7524
  5.560  -26.8223   17.6151  -26.6933   18.1145  -28.4969   18.0434  -27.7385   17.1065  -27.7724   17.4721  -25.8804   17.5017
  5.570  -27.0057   17.3242  -26.8785   17.8277  -28.6277   17.6573  -27.8789   16.7940  -27.9018   17.1338  -26.0610   17.2416
  5.580  -27.1722   17.0253  -27.0475   17.5329  -28.7370   17.2719  -28.0025   16.4771  -28.0134   16.7933  -26.2261   16.9735
  5.590  -27.3218   16.7199  -27.2000   17.2314  -28.8259   16.8883  -28.1096   16.1570  -28.1079   16.4518  -26.3757   16.6986
  5.600  -27.4547   16.4091  -27.3364   16.9244  -28.8956   16.5077  -28.2005   15.8346  -28.1857   16.1102  -26.5101   16.4183
  5.610  -27.5709   16.0942  -27.4567   16.6132  -28.9470   16.1311  -28.2756   15.5112  -28.2476   15.7696  -26.6295   16.1337
  5.620  -27.6708   15.7766  -27.5611   16.2989  -28.9815   15.7592  -28.3355   15.1877  -28.2942   15.4308  -26.7341   15.8459
  5.630  -27.7548   15.4572  -27.6502   15.9826  -29.0000   15.3929  -28.3806   14.8649  -28.3262   15.0945  -26.8245   15.5557
  5.640  -27.8233   15.1371  -27.7242   15.6653  -29.0036   15.0325  -28.4115   14.5438  -28.3443   14.7615  -26.9009   15.2642
  5.650  -27.8767   14.8174  -27.7837   15.3479  -28.9934   14.6787  -28.4288   14.2250  -28.3491   14.4324  -26.9638   14.9722
  5.660  -27.9157   14.4988  -27.8291   15.0313  -28.9703   14.3317  -28.4332   13.9092  -28.3414   14.1077  -27.0138   14.6804
  5.670  -27.9409   14.1822  -27.8610   14.7162  -28.9353   13.9919  -28.4252   13.5971  -28.3220   13.7880  -27.0513   14.3896
  5.680  -27.9528   13.8683  -27.8800   14.4033  -28.8892   13.6594  -28.4056   13.2892  -28.2915   13.4735  -27.0768   14.1003
  5.690  -27.9521   13.5578  -27.8865   14.0933  -28.8330   13.3345  -28.3750   12.9859  -28.2505   13.1647  -27.0909   13.8131
  5.700  -27.9395   13.2513  -27.8814   13.7867  -28.7673   13.0172  -28.3340   12.6876  -28.1999   12.8618  -27.0940   13.5285
  5.710  -27.9157   12.9492  -27.8650   13.4841  -28.6929   12.7075  -28.2832   12.3947  -28.1402   12.5651  -27.0868   13.2471
  5.720  -27.8812   12.6519  -27.8382   13.1858  -28.6106   12.4056  -28.2234   12.1075  -28.0720   12.2747  -27.0698   12.9691
  5.730  -27.8367   12.3599  -27.8013   12.8922  -28.5209   12.1114  -28.1551   11.8261  -27.9960   11.9908  -27.0434   12.6949
  5.740  -27.7830   12.0734  -27.7552   12.6037  -28.4246   11.8249  -28.0790   11.5509  -27.9128   11.7135  -27.0082   12.4248
  5.750  -27.7206   11.7927  -27.7003   12.3206  -28.3220   11.5459  -27.9956   11.2819  -27.8229   11.4428  -26.9647   12.1592
  5.760  -27.6501   11.5181  -27.6371   12.0430  -28.2139   11.2745  -27.9055   11.0191  -27.7269   11.1789  -26.9133   11.8982
  5.770  -27.5721   11.2495  -27.5664   11.7711  -28.1007   11.0105  -27.8092   10.7628  -27.6252   10.9216  -26.8547   11.6419
  5.780  -27.4873   10.9872  -27.4886   11.5051  -27.9829   10.7537  -27.7072   10.5129  -27.5184   10.6709  -26.7892   11.3907
  5.790  -27.3961   10.7312  -27.4042   11.2451  -27.8608   10.5042  -27.6000   10.2693  -27.4069   10.4269  -26.7174   11.1445
  5.800  -27.2990   10.4816  -27.3137   10.9911  -27.7350   10.2617  -27.4881   10.0322  -27.2911   10.1895  -26.6395   10.9035
  5.810  -27.1966   10.2384  -27.2177   10.7432  -27.6058   10.0261  -27.3719    9.8014  -27.1715    9.9585  -26.5562   10.6677
  5.820  -27.0894   10.0015  -27.1165   10.5014  -27.4735    9.7973  -27.2519    9.5769  -27.0484    9.7339  -26.4677   10.4373
  5.830  -26.9777    9.7710  -27.0106   10.2657  -27.3385    9.5751  -27.1284    9.3586  -26.9222    9.5156  -26.3746   10.2122
  5.840  -26.8620    9.5467  -26.9005   10.0361  -27.2011    9.3594  -27.0017    9.1464  -26.7932    9.3034  -26.2770    9.9924
  5.850  -26.7427    9.3286  -26.7864    9.8125  -27.0616    9.1499  -26.8723    8.9402  -26.6618    9.0973  -26.1755    9.7779
  5.860  -26.6202    9.1166  -26.6688    9.5949  -26.9203    8.9466  -26.7403    8.7399  -26.5282    8.8971  -26.0703    9.5687
  5.870  -26.4947    8.9106  -26.5481    9.3832  -26.7773    8.7492  -26.6063    8.5453  -26.3926    8.7027  -25.9618    9.3647
  5.880  -26.3667    8.7105  -26.4245    9.1772  -26.6330    8.5577  -26.4703    8.3564  -26.2555    8.5138  -25.8502    9.1659
  5.890  -26.2364    8.5161  -26.2983    8.9769  -26.4876    8.3718  -26.3327    8.1730  -26.1169    8.3305  -25.7359    8.9723
  5.900  -26.1042    8.3273  -26.1699    8.7822  -26.3412    8.1914  -26.1937    7.9949  -25.9771    8.1525  -25.6191    8.7837
  5.910  -25.9702    8.1441  -26.0396    8.5930  -26.1941    8.0164  -26.0535    7.8220  -25.8364    7.9798  -25.5002    8.6001
  5.920  -25.8347    7.9662  -25.9074    8.4092  -26.0463    7.8465  -25.9123    7.6542  -25.6948    7.8120  -25.3792    8.4214
  5.930  -25.6980    7.7936  -25.7738    8.2305  -25.8982    7.6817  -25.7703    7.4914  -25.5526    7.6492  -25.2565    8.2474
  5.940  -25.5602    7.6260  -25.6389    8.0570  -25.7497    7.5217  -25.6278    7.3333  -25.4099    7.4912  -25.1323    8.0782
  5.950  -25.4215    7.4633  -25.5029    7.8884  -25.6012    7.3664  -25.4847    7.1799  -25.2669    7.3377  -25.0067    7.9135
  5.960  -25.2822    7.3055  -25.3661    7.7247  -25.4526    7.2158  -25.3414    7.0310  -25.1238    7.1888  -24.8800    7.7533
  5.970  -25.1423    7.1523  -25.2285    7.5656  -25.3041    7.0695  -25.1979    6.8865  -24.9805    7.0441  -24.7523    7.5975
  5.980  -25.0021    7.0036  -25.0903    7.4112  -25.1558    6.9275  -25.0543    6.7462  -24.8374    6.9037  -24.6238    7.4460
  5.990  -24.8617    6.8594  -24.9517    7.2611  -25.0078    6.7897  -24.9108    6.6100  -24.6943    6.7674  -24.4946    7.2986
  6.000  -24.7211    6.7193  -24.8129    7.1154  -24.8601    6.6559  -24.7675    6.4778  -24.5516    6.6350  -24.3649    7.1553
  6.010  -24.5806    6.5834  -24.6739    6.9739  -24.7130    6.5259  -24.6245    6.3494  -24.4091    6.5064  -24.2348    7.0159
  6.020  -24.4401    6.4514  -24.5349    6.8364  -24.5664    6.3998  -24.4818    6.2248  -24.2671    6.3815  -24.1044    6.8803
  6.030  -24.2999    6.3232  -24.3959    6.7029  -24.4204    6.2772  -24.3395    6.1037  -24.1256    6.2601  -23.9739    6.7485
  6.040  -24.1600    6.1988  -24.2571    6.5732  -24.2751    6.1582  -24.1977    5.9861  -23.9846    6.1422  -23.8433    6.6202
  6.050  -24.0205    6.0780  -24.1186    6.4471  -24.1304    6.0425  -24.0565    5.8719  -23.8442    6.0276  -23.7127    6.4955
  6.060  -23.8814    5.9607  -23.9804    6.3246  -23.9866    5.9301  -23.9159    5.7609  -23.7045    5.9163  -23.5822    6.3742
  6.070  -23.7429    5.8467  -23.8426    6.2056  -23.8436    5.8209  -23.7760    5.6530  -23.5656    5.8081  -23.4519    6.2562
  6.080  -23.6049    5.7360  -23.7053    6.0899  -23.7014    5.7148  -23.6368    5.5482  -23.4274    5.7028  -23.3219    6.1414
  6.090  -23.4676    5.6284  -23.5686    5.9775  -23.5602    5.6116  -23.4984    5.4463  -23.2900    5.6005  -23.1923    6.0297
  6.100  -23.3310    5.5239  -23.4324    5.8682  -23.4198    5.5113  -23.3608    5.3473  -23.1534    5.5010  -23.0630    5.9210
  6.110  -23.1951    5.4223  -23.2969    5.7619  -23.2804    5.4137  -23.2240    5.2510  -23.0177    5.4043  -22.9341    5.8153
  6.120  -23.0599    5.3235  -23.1621    5.6585  -23.1420    5.3188  -23.0881    5.1573  -22.8829    5.3101  -22.8058    5.7123
  6.130  -22.9256    5.2275  -23.0281    5.5580  -23.0046    5.2265  -22.9531    5.0662  -22.7490    5.2185  -22.6780    5.6121
  6.140  -22.7921    5.1341  -22.8948    5.4602  -22.8682    5.1367  -22.8190    4.9775  -22.6160    5.1293  -22.5508    5.5146
  6.150  -22.6595    5.0433  -22.7623    5.3651  -22.7328    5.0492  -22.6859    4.8913  -22.4840    5.0425  -22.4243    5.4196
  6.160  -22.5278    4.9549  -22.6306    5.2725  -22.5985    4.9642  -22.5537    4.8073  -22.3530    4.9580  -22.2984    5.3271
  6.170  -22.3970    4.8689  -22.4998    5.1824  -22.4653    4.8813  -22.4225    4.7256  -22.2229    4.8758  -22.1732    5.2370
  6.180  -22.2671    4.7853  -22.3699    5.0946  -22.3331    4.8006  -22.2923    4.6460  -22.0939    4.7956  -22.0487    5.1493
  6.190  -22.1381    4.7038  -22.2408    5.0092  -22.2019    4.7221  -22.1630    4.5686  -21.9658    4.7176  -21.9249    5.0638
  6.200  -22.0101    4.6246  -22.1127    4.9261  -22.0719    4.6456  -22.0348    4.4931  -21.8388    4.6415  -21.8020    4.9805
  6.210  -21.8831    4.5474  -21.9856    4.8450  -21.9429    4.5710  -21.9076    4.4196  -21.7128    4.5674  -21.6798    4.8993
  6.220  -21.7571    4.4722  -21.8593    4.7661  -21.8151    4.4983  -21.7814    4.3480  -21.5878    4.4951  -21.5584    4.8202
  6.230  -21.6320    4.3989  -21.7340    4.6892  -21.6883    4.4275  -21.6562    4.2781  -21.4638    4.4247  -21.4379    4.7430
  6.240  -21.5080    4.3276  -21.6097    4.6143  -21.5626    4.3585  -21.5321    4.2101  -21.3409    4.3560  -21.3182    4.6678
  6.250  -21.3849    4.2581  -21.4864    4.5413  -21.4380    4.2912  -21.4090    4.1438  -21.2190    4.2891  -21.1993    4.5945
  6.260  -21.2629    4.1903  -21.3640    4.4701  -21.3144    4.2255  -21.2869    4.0791  -21.0981    4.2237  -21.0813    4.5229
  6.270  -21.1418    4.1242  -21.2426    4.4006  -21.1920    4.1615  -21.1658    4.0160  -20.9783    4.1600  -20.9641    4.4531
  6.280  -21.0218    4.0598  -21.1222    4.3329  -21.0706    4.0990  -21.0458    3.9544  -20.8594    4.0978  -20.8479    4.3851
  6.290  -20.9027    3.9970  -21.0028    4.2669  -20.9503    4.0380  -20.9268    3.8944  -20.7416    4.0371  -20.7324    4.3186
  6.300  -20.7847    3.9357  -20.8844    4.2024  -20.8311    3.9785  -20.8088    3.8358  -20.6248    3.9778  -20.6179    4.2537
  6.310  -20.6676    3.8759  -20.7669    4.1395  -20.7129    3.9204  -20.6918    3.7786  -20.5090    3.9199  -20.5043    4.1904
  6.320  -20.5516    3.8176  -20.6504    4.0782  -20.5957    3.8637  -20.5758    3.7228  -20.3943    3.8634  -20.3915    4.1286
  6.330  -20.4365    3.7607  -20.5349    4.0182  -20.4797    3.8083  -20.4608    3.6682  -20.2805    3.8082  -20.2796    4.0682
  6.340  -20.3224    3.7051  -20.4204    3.9597  -20.3646    3.7542  -20.3468    3.6150  -20.1677    3.7543  -20.1686    4.0092
  6.350  -20.2093    3.6508  -20.3069    3.9026  -20.2506    3.7013  -20.2338    3.5630  -20.0559    3.7016  -20.0585    3.9516
  6.360  -20.0972    3.5978  -20.1943    3.8468  -20.1376    3.6497  -20.1218    3.5122  -19.9451    3.6501  -19.9493    3.8953
  6.370  -19.9860    3.5461  -20.0827    3.7923  -20.0256    3.5992  -20.0108    3.4625  -19.8352    3.5998  -19.8409    3.8403
  6.380  -19.8759    3.4955  -19.9720    3.7390  -19.9146    3.5499  -19.9007    3.4140  -19.7263    3.5506  -19.7335    3.7866
  6.390  -19.7666    3.4461  -19.8623    3.6870  -19.8047    3.5016  -19.7916    3.3666  -19.6184    3.5025  -19.6269    3.7340
  6.400  -19.6583    3.3978  -19.7536    3.6361  -19.6957    3.4545  -19.6834    3.3202  -19.5114    3.4554  -19.5211    3.6826
  6.410  -19.5510    3.3506  -19.6457    3.5864  -19.5876    3.4083  -19.5762    3.2749  -19.4053    3.4094  -19.4162    3.6324
  6.420  -19.4446    3.3045  -19.5388    3.5377  -19.4806    3.3632  -19.4699    3.2306  -19.3002    3.3644  -19.3122    3.5832
  6.430  -19.3391    3.2594  -19.4329    3.4902  -19.3745    3.3191  -19.3646    3.1872  -19.1960    3.3203  -19.2091    3.5352
  6.440  -19.2346    3.2153  -19.3278    3.4436  -19.2693    3.2759  -19.2602    3.1448  -19.0927    3.2772  -19.1068    3.4881
  6.450  -19.1309    3.1721  -19.2237    3.3981  -19.1651    3.2336  -19.1567    3.1032  -18.9903    3.2350  -19.0053    3.4421
  6.460  -19.0281    3.1299  -19.1204    3.3536  -19.0618    3.1922  -19.0540    3.0626  -18.8888    3.1936  -18.9047    3.3971
  6.470  -18.9263    3.0886  -19.0181    3.3100  -18.9595    3.1517  -18.9523    3.0228  -18.7882    3.1532  -18.8049    3.3530
  6.480  -18.8253    3.0482  -18.9166    3.2673  -18.8580    3.1120  -18.8515    2.9839  -18.6884    3.1136  -18.7059    3.3098
  6.490  -18.7252    3.0086  -18.8160    3.2256  -18.7574    3.0732  -18.7515    2.9458  -18.5896    3.0747  -18.6078    3.2675
  6.500  -18.6260    2.9699  -18.7163    3.1847  -18.6577    3.0351  -18.6524    2.9084  -18.4915    3.0367  -18.5104    3.2261
  6.510  -18.5276    2.9320  -18.6174    3.1446  -18.5589    2.9978  -18.5541    2.8719  -18.3944    2.9995  -18.4139    3.1856
  6.520  -18.4300    2.8949  -18.5193    3.1054  -18.4610    2.9613  -18.4567    2.8360  -18.2980    2.9630  -18.3182    3.1459
  6.530  -18.3333    2.8585  -18.4222    3.0670  -18.3639    2.9255  -18.3601    2.8009  -18.2025    2.9272  -18.2232    3.1069
  6.540  -18.2375    2.8229  -18.3258    3.0293  -18.2677    2.8904  -18.2644    2.7666  -18.1078    2.8921  -18.1291    3.0688
  6.550  -18.1424    2.7880  -18.2303    2.9924  -18.1722    2.8560  -18.1695    2.7329  -18.0140    2.8577  -18.0357    3.0314
  6.560  -18.0482    2.7538  -18.1356    2.9563  -18.0777    2.8223  -18.0753    2.6998  -17.9209    2.8240  -17.9431    2.9948
  6.570  -17.9548    2.7203  -18.0416    2.9208  -17.9839    2.7892  -17.9820    2.6674  -17.8286    2.7909  -17.8512    2.9589
  6.580  -17.8621    2.6874  -17.9485    2.8861  -17.8909    2.7568  -17.8895    2.6357  -17.7371    2.7585  -17.7601    2.9237
  6.590  -17.7703    2.6552  -17.8562    2.8520  -17.7988    2.7250  -17.7977    2.6045  -17.6464    2.7267  -17.6697    2.8891
  6.600  -17.6792    2.6236  -17.7646    2.8186  -17.7074    2.6938  -17.7067    2.5740  -17.5564    2.6955  -17.5801    2.8552
  6.610  -17.5889    2.5927  -17.6738    2.7858  -17.6168    2.6631  -17.6165    2.5440  -17.4672    2.6649  -17.4912    2.8220
  6.620  -17.4993    2.5623  -17.5838    2.7537  -17.5270    2.6331  -17.5271    2.5146  -17.3787    2.6348  -17.4030    2.7894
  6.630  -17.4105    2.5325  -17.4946    2.7221  -17.4379    2.6036  -17.4384    2.4858  -17.2910    2.6053  -17.3156    2.7574
  6.640  -17.3224    2.5033  -17.4060    2.6912  -17.3496    2.5747  -17.3504    2.4575  -17.2040    2.5764  -17.2288    2.7261
  6.650  -17.2351    2.4746  -17.3182    2.6608  -17.2621    2.5462  -17.2631    2.4297  -17.1177    2.5479  -17.1428    2.6953
  6.660  -17.1485    2.4465  -17.2312    2.6310  -17.1752    2.5183  -17.1766    2.4024  -17.0321    2.5200  -17.0574    2.6650
  6.670  -17.0626    2.4189  -17.1448    2.6017  -17.0891    2.4909  -17.0908    2.3757  -16.9473    2.4926  -16.9728    2.6353
  6.680  -16.9774    2.3918  -17.0592    2.5730  -17.0037    2.4640  -17.0056    2.3494  -16.8631    2.4657  -16.8888    2.6062
  6.690  -16.8929    2.3651  -16.9743    2.5448  -16.9190    2.4376  -16.9212    2.3236  -16.7796    2.4392  -16.8055    2.5776
  6.700  -16.8091    2.3390  -16.8900    2.5171  -16.8350    2.4116  -16.8375    2.2983  -16.6968    2.4132  -16.7228    2.5495
  6.710  -16.7260    2.3134  -16.8065    2.4899  -16.7517    2.3861  -16.7544    2.2734  -16.6147    2.3877  -16.6408    2.5219
  6.720  -16.6435    2.2882  -16.7236    2.4632  -16.6690    2.3611  -16.6720    2.2489  -16.5332    2.3626  -16.5595    2.4947
  6.730  -16.5617    2.2634  -16.6414    2.4369  -16.5871    2.3365  -16.5903    2.2249  -16.4524    2.3380  -16.4787    2.4681
  6.740  -16.4806    2.2391  -16.5598    2.4111  -16.5058    2.3122  -16.5092    2.2013  -16.3722    2.3137  -16.3987    2.4419
  6.750  -16.4001    2.2152  -16.4789    2.3858  -16.4252    2.2885  -16.4288    2.1781  -16.2927    2.2899  -16.3192    2.4162
  6.760  -16.3203    2.1918  -16.3987    2.3609  -16.3452    2.2651  -16.3490    2.1553  -16.2138    2.2665  -16.2404    2.3909
  6.770  -16.2411    2.1687  -16.3191    2.3364  -16.2658    2.2421  -16.2699    2.1329  -16.1355    2.2434  -16.1622    2.3660
  6.780  -16.1625    2.1460  -16.2401    2.3123  -16.1871    2.2195  -16.1913    2.1108  -16.0578    2.2208  -16.0846    2.3416
  6.790  -16.0845    2.1238  -16.1618    2.2887  -16.1090    2.1972  -16.1134    2.0892  -15.9808    2.1985  -16.0075    2.3176
  6.800  -16.0072    2.1019  -16.0840    2.2654  -16.0315    2.1753  -16.0361    2.0679  -15.9043    2.1766  -15.9311    2.2940
  6.810  -15.9305    2.0803  -16.0069    2.2425  -15.9546    2.1538  -15.9594    2.0469  -15.8285    2.1551  -15.8553    2.2707
  6.820  -15.8543    2.0592  -15.9304    2.2200  -15.8784    2.1327  -15.8833    2.0263  -15.7532    2.1339  -15.7801    2.2479
  6.830  -15.7788    2.0384  -15.8545    2.1979  -15.8027    2.1118  -15.8078    2.0061  -15.6785    2.1130  -15.7054    2.2254
  6.840  -15.7038    2.0179  -15.7791    2.1761  -15.7276    2.0914  -15.7329    1.9862  -15.6044    2.0925  -15.6313    2.2033
  6.850  -15.6294    1.9978  -15.7044    2.1547  -15.6531    2.0712  -15.6585    1.9666  -15.5309    2.0723  -15.5577    2.1816
  6.860  -15.5556    1.9779  -15.6302    2.1337  -15.5792    2.0514  -15.5847    1.9473  -15.4579    2.0524  -15.4847    2.1602
  6.870  -15.4824    1.9585  -15.5566    2.1129  -15.5058    2.0318  -15.5115    1.9283  -15.3854    2.0329  -15.4123    2.1391
  6.880  -15.4097    1.9393  -15.4835    2.0925  -15.4330    2.0126  -15.4388    1.9096  -15.3136    2.0136  -15.3404    2.1184
  6.890  -15.3375    1.9204  -15.4110    2.0724  -15.3608    1.9937  -15.3667    1.8912  -15.2422    1.9946  -15.2690    2.0980
  6.900  -15.2659    1.9019  -15.3391    2.0527  -15.2891    1.9750  -15.2951    1.8731  -15.1714    1.9760  -15.1982    2.0779
  6.910  -15.1949    1.8836  -15.2677    2.0332  -15.2179    1.9567  -15.2240    1.8553  -15.1012    1.9576  -15.1279    2.0582
  6.920  -15.1243    1.8656  -15.1968    2.0141  -15.1473    1.9386  -15.1535    1.8378  -15.0314    1.9395  -15.0581    2.0387
  6.930  -15.0543    1.8479  -15.1265    1.9952  -15.0772    1.9208  -15.0835    1.8205  -14.9622    1.9216  -14.9888    2.0196
  6.940  -14.9849    1.8305  -15.0567    1.9766  -15.0077    1.9033  -15.0140    1.8035  -14.8935    1.9041  -14.9200    2.0007
  6.950  -14.9159    1.8133  -14.9874    1.9584  -14.9386    1.8860  -14.9451    1.7868  -14.8252    1.8868  -14.8517    1.9822
  6.960  -14.8474    1.7964  -14.9186    1.9404  -14.8700    1.8690  -14.8766    1.7703  -14.7575    1.8697  -14.7840    1.9639
  6.970  -14.7795    1.7798  -14.8503    1.9226  -14.8020    1.8523  -14.8086    1.7540  -14.6903    1.8529  -14.7167    1.9458
  6.980  -14.7120    1.7634  -14.7825    1.9051  -14.7345    1.8358  -14.7412    1.7380  -14.6236    1.8364  -14.6499    1.9281
  6.990  -14.6450    1.7472  -14.7153    1.8879  -14.6674    1.8195  -14.6742    1.7223  -14.5573    1.8201  -14.5836    1.9106
  7.000  -14.5786    1.7313  -14.6485    1.8710  -14.6008    1.8035  -14.6077    1.7068  -14.4915    1.8040  -14.5177    1.8934
  7.010  -14.5126    1.7157  -14.5821    1.8542  -14.5348    1.7877  -14.5417    1.6915  -14.4262    1.7882  -14.4523    1.8764
  7.020  -14.4470    1.7002  -14.5163    1.8378  -14.4692    1.7721  -14.4761    1.6764  -14.3614    1.7726  -14.3874    1.8597
  7.030  -14.3820    1.6850  -14.4510    1.8215  -14.4040    1.7567  -14.4111    1.6615  -14.2970    1.7572  -14.3230    1.8432
  7.040  -14.3174    1.6700  -14.3861    1.8056  -14.3394    1.7416  -14.3465    1.6469  -14.2331    1.7420  -14.2590    1.8270
  7.050  -14.2532    1.6553  -14.3216    1.7898  -14.2751    1.7267  -14.2823    1.6325  -14.1696    1.7270  -14.1954    1.8109
  7.060  -14.1895    1.6407  -14.2577    1.7742  -14.2114    1.7120  -14.2186    1.6182  -14.1066    1.7123  -14.1323    1.7952
  7.070  -14.1263    1.6264  -14.1942    1.7589  -14.1481    1.6975  -14.1553    1.6042  -14.0440    1.6977  -14.0696    1.7796
  7.080  -14.0635    1.6122  -14.1311    1.7438  -14.0852    1.6832  -14.0925    1.5904  -13.9819    1.6834  -14.0074    1.7643
  7.090  -14.0011    1.5983  -14.0684    1.7289  -14.0228    1.6691  -14.0301    1.5768  -13.9202    1.6693  -13.9456    1.7491
  7.100  -13.9392    1.5846  -14.0063    1.7142  -13.9608    1.6551  -13.9682    1.5633  -13.8589    1.6553  -13.8842    1.7342
  7.110  -13.8777    1.5710  -13.9445    1.6998  -13.8992    1.6414  -13.9067    1.5501  -13.7980    1.6416  -13.8232    1.7195
  7.120  -13.8166    1.5576  -13.8832    1.6855  -13.8381    1.6279  -13.8456    1.5370  -13.7376    1.6280  -13.7627    1.7050
  7.130  -13.7560    1.5445  -13.8223    1.6714  -13.7774    1.6145  -13.7849    1.5241  -13.6775    1.6146  -13.7026    1.6907
  7.140  -13.6958    1.5315  -13.7618    1.6575  -13.7171    1.6013  -13.7246    1.5114  -13.6179    1.6014  -13.6428    1.6766
  7.150  -13.6359    1.5187  -13.7017    1.6438  -13.6572    1.5883  -13.6648    1.4988  -13.5587    1.5883  -13.5835    1.6627
  7.160  -13.5765    1.5060  -13.6420    1.6303  -13.5977    1.5755  -13.6053    1.4865  -13.4998    1.5755  -13.5246    1.6489
  7.170  -13.5175    1.4936  -13.5828    1.6169  -13.5387    1.5629  -13.5463    1.4743  -13.4414    1.5628  -13.4661    1.6354
  7.180  -13.4589    1.4813  -13.5239    1.6037  -13.4800    1.5504  -13.4876    1.4622  -13.3834    1.5503  -13.4079    1.6220
  7.190  -13.4006    1.4691  -13.4654    1.5908  -13.4217    1.5380  -13.4294    1.4504  -13.3257    1.5379  -13.3502    1.6088
  7.200  -13.3428    1.4572  -13.4074    1.5779  -13.3638    1.5259  -13.3715    1.4386  -13.2684    1.5257  -13.2928    1.5958
  7.210  -13.2853    1.4454  -13.3497    1.5653  -13.3063    1.5139  -13.3140    1.4271  -13.2116    1.5137  -13.2358    1.5830
  7.220  -13.2283    1.4337  -13.2924    1.5528  -13.2491    1.5020  -13.2569    1.4157  -13.1550    1.5018  -13.1792    1.5703
  7.230  -13.1716    1.4222  -13.2354    1.5405  -13.1924    1.4903  -13.2001    1.4044  -13.0989    1.4900  -13.1229    1.5578
  7.240  -13.1152    1.4109  -13.1789    1.5283  -13.1360    1.4787  -13.1438    1.3933  -13.0431    1.4785  -13.0670    1.5455
  7.250  -13.0593    1.3997  -13.1227    1.5163  -13.0800    1.4673  -13.0878    1.3823  -12.9877    1.4670  -13.0115    1.5333
  7.260  -13.0037    1.3886  -13.0669    1.5045  -13.0243    1.4561  -13.0321    1.3715  -12.9326    1.4557  -12.9563    1.5212
  7.270  -12.9484    1.3777  -13.0115    1.4928  -12.9691    1.4450  -12.9769    1.3608  -12.8779    1.4446  -12.9015    1.5094
  7.280  -12.8936    1.3669  -12.9564    1.4812  -12.9141    1.4340  -12.9219    1.3502  -12.8236    1.4336  -12.8471    1.4976
  7.290  -12.8390    1.3563  -12.9017    1.4698  -12.8596    1.4231  -12.8674    1.3398  -12.7696    1.4227  -12.7930    1.4861
  7.300  -12.7849    1.3458  -12.8473    1.4585  -12.8053    1.4124  -12.8132    1.3295  -12.7159    1.4119  -12.7392    1.4746
  7.310  -12.7310    1.3355  -12.7933    1.4474  -12.7514    1.4018  -12.7593    1.3193  -12.6626    1.4013  -12.6858    1.4633
  7.320  -12.6775    1.3252  -12.7396    1.4364  -12.6979    1.3914  -12.7057    1.3093  -12.6096    1.3909  -12.6327    1.4522
  7.330  -12.6244    1.3151  -12.6863    1.4256  -12.6447    1.3811  -12.6526    1.2994  -12.5570    1.3805  -12.5799    1.4412
  7.340  -12.5716    1.3052  -12.6332    1.4149  -12.5918    1.3709  -12.5997    1.2896  -12.5046    1.3703  -12.5275    1.4303
  7.350  -12.5191    1.2953  -12.5806    1.4043  -12.5393    1.3608  -12.5472    1.2799  -12.4526    1.3602  -12.4754    1.4196
  7.360  -12.4669    1.2856  -12.5282    1.3938  -12.4871    1.3509  -12.4950    1.2704  -12.4010    1.3502  -12.4236    1.4090
  7.370  -12.4151    1.2760  -12.4762    1.3835  -12.4352    1.3410  -12.4431    1.2610  -12.3496    1.3403  -12.3722    1.3985
  7.380  -12.3636    1.2665  -12.4246    1.3733  -12.3837    1.3313  -12.3915    1.2517  -12.2986    1.3306  -12.3210    1.3882
  7.390  -12.3124    1.2571  -12.3732    1.3632  -12.3324    1.3217  -12.3403    1.2425  -12.2479    1.3210  -12.2702    1.3779
  7.400  -12.2615    1.2479  -12.3222    1.3533  -12.2815    1.3122  -12.2894    1.2334  -12.1975    1.3115  -12.2197    1.3678
  7.410  -12.2109    1.2387  -12.2714    1.3434  -12.2309    1.3029  -12.2387    1.2244  -12.1473    1.3021  -12.1695    1.3579
  7.420  -12.1607    1.2297  -12.2210    1.3337  -12.1806    1.2936  -12.1884    1.2155  -12.0975    1.2928  -12.1196    1.3480
  7.430  -12.1107    1.2208  -12.1709    1.3241  -12.1306    1.2845  -12.1384    1.2068  -12.0480    1.2836  -12.0700    1.3383
  7.440  -12.0611    1.2119  -12.1211    1.3146  -12.0809    1.2754  -12.0887    1.1981  -11.9988    1.2745  -12.0206    1.3286
  7.450  -12.0117    1.2032  -12.0716    1.3052  -12.0314    1.2665  -12.0393    1.1896  -11.9499    1.2656  -11.9716    1.3191
  7.460  -11.9626    1.1946  -12.0224    1.2960  -11.9823    1.2577  -11.9902    1.1811  -11.9013    1.2567  -11.9229    1.3097
  7.470  -11.9139    1.1861  -11.9735    1.2868  -11.9335    1.2489  -11.9414    1.1727  -11.8530    1.2480  -11.8745    1.3004
  7.480  -11.8654    1.1777  -11.9249    1.2777  -11.8850    1.2403  -11.8929    1.1645  -11.8049    1.2393  -11.8263    1.2912
  7.490  -11.8172    1.1694  -11.8765    1.2688  -11.8368    1.2318  -11.8447    1.1563  -11.7572    1.2307  -11.7785    1.2822
  7.500  -11.7693    1.1612  -11.8285    1.2599  -11.7888    1.2233  -11.7967    1.1483  -11.7097    1.2223  -11.7309    1.2732
  7.510  -11.7217    1.1531  -11.7808    1.2512  -11.7411    1.2150  -11.7490    1.1403  -11.6625    1.2139  -11.6836    1.2643
  7.520  -11.6743    1.1451  -11.7333    1.2426  -11.6937    1.2067  -11.7016    1.1324  -11.6156    1.2056  -11.6366    1.2556
  7.530  -11.6272    1.1372  -11.6861    1.2340  -11.6466    1.1986  -11.6545    1.1246  -11.5689    1.1975  -11.5898    1.2469
  7.540  -11.5804    1.1293  -11.6392    1.2256  -11.5998    1.1905  -11.6077    1.1169  -11.5225    1.1894  -11.5433    1.2383
  7.550  -11.5339    1.1216  -11.5925    1.2172  -11.5532    1.1826  -11.5611    1.1093  -11.4764    1.1814  -11.4971    1.2299
  7.560  -11.4876    1.1139  -11.5462    1.2089  -11.5069    1.1747  -11.5148    1.1018  -11.4306    1.1735  -11.4511    1.2215
  7.570  -11.4416    1.1064  -11.5000    1.2008  -11.4608    1.1669  -11.4687    1.0944  -11.3850    1.1657  -11.4054    1.2132
  7.580  -11.3959    1.0989  -11.4542    1.1927  -11.4151    1.1592  -11.4229    1.0870  -11.3396    1.1579  -11.3600    1.2051
  7.590  -11.3504    1.0915  -11.4086    1.1847  -11.3695    1.1516  -11.3774    1.0798  -11.2945    1.1503  -11.3148    1.1970
  7.600  -11.3052    1.0842  -11.3633    1.1768  -11.3243    1.1441  -11.3321    1.0726  -11.2497    1.1427  -11.2699    1.1890
  7.610  -11.2602    1.0770  -11.3182    1.1690  -11.2793    1.1366  -11.2871    1.0655  -11.2051    1.1353  -11.2252    1.1811
  7.620  -11.2155    1.0699  -11.2734    1.1613  -11.2345    1.1293  -11.2424    1.0585  -11.1608    1.1279  -11.1808    1.1732
  7.630  -11.1710    1.0628  -11.2289    1.1536  -11.1900    1.1220  -11.1979    1.0515  -11.1167    1.1206  -11.1366    1.1655
  7.640  -11.1268    1.0558  -11.1846    1.1461  -11.1457    1.1148  -11.1536    1.0447  -11.0729    1.1133  -11.0927    1.1579
  7.650  -11.0828    1.0489  -11.1405    1.1386  -11.1017    1.1076  -11.1096    1.0379  -11.0293    1.1062  -11.0490    1.1503
  7.660  -11.0391    1.0421  -11.0967    1.1312  -11.0579    1.1006  -11.0658    1.0312  -10.9859    1.0991  -11.0055    1.1428
  7.670  -10.9956    1.0354  -11.0531    1.1239  -11.0143    1.0936  -11.0222    1.0245  -10.9428    1.0921  -10.9623    1.1354
  7.680  -10.9523    1.0287  -11.0098    1.1167  -10.9710    1.0867  -10.9789    1.0180  -10.8999    1.0852  -10.9193    1.1281
  7.690  -10.9093    1.0221  -10.9667    1.1095  -10.9280    1.0799  -10.9359    1.0115  -10.8572    1.0783  -10.8765    1.1209
  7.700  -10.8665    1.0156  -10.9239    1.1025  -10.8851    1.0732  -10.8930    1.0051  -10.8148    1.0716  -10.8340    1.1137
  7.710  -10.8239    1.0091  -10.8812    1.0955  -10.8425    1.0665  -10.8504    0.9987  -10.7726    1.0649  -10.7917    1.1066
  7.720  -10.7816    1.0027  -10.8388    1.0886  -10.8001    1.0599  -10.8080    0.9924  -10.7306    1.0583  -10.7496    1.0996
  7.730  -10.7395    0.9964  -10.7967    1.0817  -10.7580    1.0534  -10.7659    0.9862  -10.6888    1.0517  -10.7078    1.0927
  7.740  -10.6976    0.9902  -10.7547    1.0749  -10.7160    1.0469  -10.7239    0.9801  -10.6473    1.0452  -10.6662    1.0859
  7.750  -10.6559    0.9840  -10.7130    1.0682  -10.6743    1.0405  -10.6822    0.9740  -10.6060    1.0388  -10.6247    1.0791
  7.760  -10.6144    0.9779  -10.6715    1.0616  -10.6328    1.0342  -10.6407    0.9680  -10.5649    1.0325  -10.5835    1.0724
  7.770  -10.5732    0.9719  -10.6302    1.0550  -10.5915    1.0280  -10.5994    0.9621  -10.5240    1.0262  -10.5426    1.0658
  7.780  -10.5321    0.9660  -10.5892    1.0486  -10.5504    1.0218  -10.5583    0.9562  -10.4833    1.0200  -10.5018    1.0592
  7.790  -10.4913    0.9601  -10.5483    1.0421  -10.5096    1.0157  -10.5175    0.9504  -10.4428    1.0138  -10.4612    1.0527
  7.800  -10.4507    0.9542  -10.5077    1.0358  -10.4689    1.0096  -10.4768    0.9447  -10.4025    1.0077  -10.4209    1.0463
  7.810  -10.4103    0.9485  -10.4673    1.0295  -10.4284    1.0036  -10.4364    0.9390  -10.3625    1.0017  -10.3807    1.0400
  7.820  -10.3701    0.9428  -10.4271    1.0233  -10.3882    0.9977  -10.3962    0.9334  -10.3226    0.9958  -10.3408    1.0337
  7.830  -10.3301    0.9371  -10.3871    1.0171  -10.3482    0.9919  -10.3561    0.9278  -10.2829    0.9899  -10.3010    1.0275
  7.840  -10.2903    0.9315  -10.3473    1.0111  -10.3083    0.9861  -10.3163    0.9223  -10.2435    0.9841  -10.2615    1.0213
  7.850  -10.2507    0.9260  -10.3077    1.0050  -10.2687    0.9803  -10.2767    0.9169  -10.2042    0.9783  -10.2221    1.0152
  7.860  -10.2113    0.9206  -10.2683    0.9991  -10.2292    0.9747  -10.2372    0.9115  -10.1651    0.9726  -10.1830    1.0092
  7.870  -10.1721    0.9152  -10.2291    0.9932  -10.1900    0.9691  -10.1980    0.9062  -10.1263    0.9670  -10.1440    1.0033
  7.880  -10.1330    0.9098  -10.1901    0.9873  -10.1509    0.9635  -10.1589    0.9009  -10.0876    0.9614  -10.1052    0.9974
  7.890  -10.0942    0.9046  -10.1513    0.9816  -10.1120    0.9580  -10.1201    0.8958  -10.0491    0.9559  -10.0666    0.9916
  7.900  -10.0556    0.8993  -10.1127    0.9759  -10.0733    0.9526  -10.0814    0.8906  -10.0107    0.9504  -10.0282    0.9858
  7.910  -10.0171    0.8942  -10.0742    0.9702  -10.0348    0.9472  -10.0429    0.8855   -9.9726    0.9450   -9.9900    0.9801
  7.920   -9.9788    0.8891  -10.0360    0.9646   -9.9965    0.9419  -10.0046    0.8805   -9.9347    0.9397   -9.9520    0.9745
  7.930   -9.9407    0.8840   -9.9980    0.9591   -9.9584    0.9367   -9.9665    0.8755   -9.8969    0.9344   -9.9141    0.9689
  7.940   -9.9028    0.8790   -9.9601    0.9536   -9.9204    0.9315   -9.9286    0.8706   -9.8593    0.9291   -9.8765    0.9634
  7.950   -9.8651    0.8741   -9.9224    0.9482   -9.8826    0.9263   -9.8908    0.8658   -9.8219    0.9240   -9.8390    0.9580
  7.960   -9.8275    0.8692   -9.8849    0.9428   -9.8450    0.9212   -9.8532    0.8610   -9.7846    0.9189   -9.8017    0.9526
  7.970   -9.7901    0.8644   -9.8476    0.9375   -9.8076    0.9162   -9.8158    0.8562   -9.7476    0.9138   -9.7645    0.9472
  7.980   -9.7529    0.8597   -9.8104    0.9323   -9.7703    0.9113   -9.7786    0.8515   -9.7107    0.9088   -9.7275    0.9419
  7.990   -9.7159    0.8549   -9.7735    0.9271   -9.7333    0.9063   -9.7415    0.8469   -9.6739    0.9038   -9.6907    0.9367
  8.000   -9.6790    0.8503   -9.7367    0.9220   -9.6963    0.9015   -9.7046    0.8423   -9.6374    0.8989   -9.6541    0.9316
  8.010   -9.6423    0.8457   -9.7001    0.9169   -9.6596    0.8967   -9.6679    0.8377   -9.6010    0.8941   -9.6176    0.9265
  8.020   -9.6057    0.8411   -9.6636    0.9119   -9.6230    0.8919   -9.6313    0.8333   -9.5647    0.8893   -9.5813    0.9214
  8.030   -9.5693    0.8366   -9.6273    0.9069   -9.5865    0.8872   -9.5949    0.8288   -9.5286    0.8846   -9.5451    0.9164
  8.040   -9.5331    0.8322   -9.5912    0.9020   -9.5503    0.8826   -9.5587    0.8244   -9.4927    0.8799   -9.5091    0.9115
  8.050   -9.4970    0.8278   -9.5552    0.8971   -9.5141    0.8780   -9.5226    0.8201   -9.4570    0.8752   -9.4733    0.9066
  8.060   -9.4611    0.8235   -9.5194    0.8923   -9.4782    0.8734   -9.4867    0.8158   -9.4213    0.8707   -9.4376    0.9018
  8.070   -9.4253    0.8192   -9.4838    0.8875   -9.4424    0.8690   -9.4509    0.8116   -9.3859    0.8661   -9.4021    0.8970
  8.080   -9.3897    0.8149   -9.4483    0.8828   -9.4067    0.8645   -9.4153    0.8074   -9.3506    0.8617   -9.3667    0.8923
  8.090   -9.3543    0.8108   -9.4130    0.8782   -9.3712    0.8601   -9.3798    0.8033   -9.3154    0.8572   -9.3315    0.8876
  8.100   -9.3189    0.8066   -9.3778    0.8736   -9.3358    0.8558   -9.3445    0.7992   -9.2804    0.8529   -9.2964    0.8830
  8.110   -9.2838    0.8025   -9.3428    0.8690   -9.3006    0.8515   -9.3093    0.7952   -9.2455    0.8485   -9.2615    0.8785
  8.120   -9.2487    0.7985   -9.3079    0.8645   -9.2656    0.8473   -9.2743    0.7912   -9.2108    0.8443   -9.2267    0.8740
  8.130   -9.2139    0.7945   -9.2732    0.8601   -9.2306    0.8431   -9.2394    0.7873   -9.1762    0.8400   -9.1920    0.8695
  8.140   -9.1791    0.7906   -9.2387    0.8556   -9.1958    0.8390   -9.2047    0.7834   -9.1418    0.8359   -9.1575    0.8651
  8.150   -9.1445    0.7867   -9.2042    0.8513   -9.1612    0.8349   -9.1701    0.7796   -9.1075    0.8317   -9.1231    0.8608
  8.160   -9.1100    0.7829   -9.1700    0.8470   -9.1267    0.8309   -9.1356    0.7758   -9.0733    0.8277   -9.0889    0.8565
  8.170   -9.0757    0.7791   -9.1358    0.8427   -9.0923    0.8269   -9.1013    0.7721   -9.0393    0.8236   -9.0548    0.8522
  8.180   -9.0415    0.7754   -9.1018    0.8385   -9.0580    0.8230   -9.0671    0.7684   -9.0054    0.8197   -9.0208    0.8480
  8.190   -9.0074    0.7717   -9.0680    0.8344   -9.0239    0.8192   -9.0330    0.7647   -8.9716    0.8157   -8.9870    0.8439
  8.200   -8.9734    0.7681   -9.0343    0.8303   -8.9899    0.8153   -8.9991    0.7612   -8.9380    0.8119   -8.9533    0.8398
  8.210   -8.9396    0.7645   -9.0007    0.8262   -8.9560    0.8116   -8.9653    0.7576   -8.9044    0.8080   -8.9197    0.8358
  8.220   -8.9059    0.7609   -8.9672    0.8222   -8.9223    0.8079   -8.9316    0.7541   -8.8710    0.8043   -8.8862    0.8318
  8.230   -8.8723    0.7575   -8.9339    0.8182   -8.8886    0.8042   -8.8980    0.7507   -8.8378    0.8005   -8.8529    0.8279
  8.240   -8.8388    0.7540   -8.9007    0.8143   -8.8551    0.8006   -8.8646    0.7473   -8.8046    0.7969   -8.8197    0.8240
  8.250   -8.8055    0.7507   -8.8676    0.8104   -8.8217    0.7970   -8.8312    0.7440   -8.7716    0.7932   -8.7866    0.8202
  8.260   -8.7722    0.7473   -8.8347    0.8066   -8.7884    0.7935   -8.7980    0.7407   -8.7386    0.7897   -8.7536    0.8164
  8.270   -8.7391    0.7441   -8.8019    0.8028   -8.7553    0.7901   -8.7650    0.7375   -8.7058    0.7861   -8.7207    0.8127
  8.280   -8.7061    0.7408   -8.7692    0.7991   -8.7222    0.7867   -8.7320    0.7343   -8.6731    0.7827   -8.6879    0.8090
  8.290   -8.6732    0.7377   -8.7366    0.7954   -8.6893    0.7833   -8.6991    0.7311   -8.6405    0.7792   -8.6553    0.8054
  8.300   -8.6404    0.7345   -8.7042    0.7918   -8.6564    0.7800   -8.6663    0.7281   -8.6080    0.7759   -8.6227    0.8019
  8.310   -8.6077    0.7315   -8.6718    0.7882   -8.6237    0.7768   -8.6337    0.7250   -8.5757    0.7725   -8.5903    0.7983
  8.320   -8.5751    0.7285   -8.6396    0.7847   -8.5910    0.7736   -8.6011    0.7220   -8.5434    0.7693   -8.5580    0.7949
  8.330   -8.5426    0.7255   -8.6075    0.7812   -8.5585    0.7704   -8.5687    0.7191   -8.5112    0.7660   -8.5257    0.7915
  8.340   -8.5102    0.7226   -8.5755    0.7777   -8.5260    0.7673   -8.5363    0.7162   -8.4791    0.7629   -8.4936    0.7881
  8.350   -8.4779    0.7197   -8.5436    0.7744   -8.4937    0.7643   -8.5041    0.7134   -8.4471    0.7598   -8.4615    0.7848
  8.360   -8.4456    0.7169   -8.5118    0.7710   -8.4614    0.7614   -8.4719    0.7106   -8.4152    0.7567   -8.4296    0.7816
  8.370   -8.4135    0.7142   -8.4801    0.7677   -8.4292    0.7584   -8.4399    0.7079   -8.3834    0.7537   -8.3977    0.7784
  8.380   -8.3815    0.7115   -8.4485    0.7645   -8.3971    0.7556   -8.4079    0.7053   -8.3517    0.7507   -8.3660    0.7753
  8.390   -8.3495    0.7089   -8.4170    0.7613   -8.3651    0.7528   -8.3760    0.7027   -8.3201    0.7478   -8.3343    0.7722
  8.400   -8.3176    0.7063   -8.3856    0.7582   -8.3332    0.7500   -8.3442    0.7001   -8.2885    0.7450   -8.3027    0.7692
  8.410   -8.2858    0.7038   -8.3543    0.7551   -8.3013    0.7474   -8.3125    0.6976   -8.2571    0.7422   -8.2712    0.7663
  8.420   -8.2541    0.7014   -8.3231    0.7520   -8.2696    0.7448   -8.2808    0.6952   -8.2257    0.7395   -8.2397    0.7634
  8.430   -8.2224    0.6990   -8.2920    0.7490   -8.2378    0.7422   -8.2493    0.6928   -8.1944    0.7368   -8.2083    0.7605
  8.440   -8.1908    0.6966   -8.2610    0.7461   -8.2062    0.7397   -8.2178    0.6905   -8.1631    0.7342   -8.1771    0.7578
  8.450   -8.1593    0.6944   -8.2300    0.7432   -8.1746    0.7373   -8.1864    0.6883   -8.1320    0.7316   -8.1458    0.7550
  8.460   -8.1278    0.6922   -8.1992    0.7404   -8.1431    0.7349   -8.1550    0.6861   -8.1009    0.7291   -8.1147    0.7524
  8.470   -8.0964    0.6900   -8.1684    0.7376   -8.1117    0.7326   -8.1237    0.6839   -8.0698    0.7267   -8.0836    0.7498
  8.480   -8.0651    0.6880   -8.1377    0.7349   -8.0803    0.7304   -8.0925    0.6819   -8.0388    0.7243   -8.0526    0.7473
  8.490   -8.0338    0.6860   -8.1071    0.7322   -8.0490    0.7282   -8.0614    0.6799   -8.0079    0.7220   -8.0216    0.7448
  8.500   -8.0026    0.6840   -8.0766    0.7296   -8.0177    0.7261   -8.0302    0.6780   -7.9770    0.7198   -7.9907    0.7424
  8.510   -7.9714    0.6822   -8.0461    0.7270   -7.9864    0.7241   -7.9992    0.6761   -7.9462    0.7176   -7.9598    0.7401
  8.520   -7.9402    0.6804   -8.0157    0.7245   -7.9552    0.7222   -7.9682    0.6743   -7.9155    0.7155   -7.9290    0.7379
  8.530   -7.9091    0.6787   -7.9854    0.7221   -7.9241    0.7203   -7.9372    0.6726   -7.8847    0.7135   -7.8982    0.7357
  8.540   -7.8780    0.6771   -7.9551    0.7197   -7.8930    0.7186   -7.9063    0.6710   -7.8541    0.7115   -7.8675    0.7336
  8.550   -7.8470    0.6755   -7.9249    0.7174   -7.8619    0.7169   -7.8755    0.6694   -7.8234    0.7096   -7.8368    0.7316
  8.560   -7.8160    0.6741   -7.8948    0.7151   -7.8308    0.7152   -7.8446    0.6679   -7.7928    0.7078   -7.8061    0.7296
  8.570   -7.7850    0.6727   -7.8647    0.7129   -7.7998    0.7137   -7.8138    0.6665   -7.7622    0.7061   -7.7755    0.7277
  8.580   -7.7540    0.6714   -7.8346    0.7107   -7.7688    0.7123   -7.7830    0.6652   -7.7317    0.7045   -7.7449    0.7260
  8.590   -7.7231    0.6702   -7.8046    0.7087   -7.7378    0.7109   -7.7523    0.6640   -7.7011    0.7029   -7.7144    0.7242
  8.600   -7.6922    0.6691   -7.7747    0.7067   -7.7068    0.7097   -7.7216    0.6629   -7.6706    0.7014   -7.6838    0.7226
  8.610   -7.6612    0.6681   -7.7448    0.7047   -7.6758    0.7085   -7.6908    0.6618   -7.6401    0.7000   -7.6533    0.7211
  8.620   -7.6303    0.6672   -7.7149    0.7029   -7.6448    0.7075   -7.6602    0.6609   -7.6096    0.6987   -7.6227    0.7197
  8.630   -7.5994    0.6664   -7.6851    0.7011   -7.6138    0.7066   -7.6295    0.6600   -7.5792    0.6975   -7.5922    0.7183
  8.640   -7.5684    0.6657   -7.6553    0.6994   -7.5828    0.7057   -7.5988    0.6593   -7.5487    0.6964   -7.5617    0.7171
  8.650   -7.5375    0.6651   -7.6256    0.6977   -7.5518    0.7050   -7.5681    0.6587   -7.5182    0.6954   -7.5312    0.7160
  8.660   -7.5065    0.6647   -7.5958    0.6961   -7.5208    0.7044   -7.5374    0.6582   -7.4877    0.6945   -7.5006    0.7150
  8.670   -7.4755    0.6643   -7.5661    0.6947   -7.4898    0.7040   -7.5067    0.6578   -7.4572    0.6938   -7.4701    0.7141
  8.680   -7.4445    0.6641   -7.5364    0.6933   -7.4587    0.7036   -7.4760    0.6575   -7.4267    0.6931   -7.4395    0.7133
  8.690   -7.4134    0.6641   -7.5068    0.6919   -7.4276    0.7035   -7.4452    0.6573   -7.3961    0.6926   -7.4089    0.7126
  8.700   -7.3823    0.6642   -7.4771    0.6907   -7.3964    0.7034   -7.4144    0.6573   -7.3655    0.6921   -7.3783    0.7121
  8.710   -7.3512    0.6644   -7.4474    0.6896   -7.3652    0.7035   -7.3836    0.6575   -7.3349    0.6918   -7.3477    0.7116
  8.720   -7.3199    0.6648   -7.4178    0.6886   -7.3340    0.7038   -7.3528    0.6577   -7.3043    0.6917   -7.3170    0.7114
  8.730   -7.2887    0.6653   -7.3881    0.6876   -7.3027    0.7042   -7.3219    0.6582   -7.2735    0.6917   -7.2862    0.7113
  8.740   -7.2573    0.6660   -7.3585    0.6868   -7.2713    0.7048   -7.2910    0.6587   -7.2428    0.6919   -7.2554    0.7113
  8.750   -7.2259    0.6669   -7.3288    0.6861   -7.2398    0.7056   -7.2600    0.6595   -7.2119    0.6922   -7.2246    0.7115
  8.760   -7.1944    0.6680   -7.2991    0.6854   -7.2083    0.7066   -7.2289    0.6604   -7.1810    0.6926   -7.1936    0.7118
  8.770   -7.1628    0.6693   -7.2694    0.6849   -7.1766    0.7078   -7.1978    0.6616   -7.1501    0.6933   -7.1626    0.7124
  8.780   -7.1312    0.6708   -7.2396    0.6846   -7.1449    0.7092   -7.1666    0.6629   -7.1190    0.6941   -7.1315    0.7131
  8.790   -7.0994    0.6726   -7.2099    0.6843   -7.1130    0.7108   -7.1353    0.6644   -7.0878    0.6952   -7.1004    0.7140
  8.800   -7.0674    0.6745   -7.1800    0.6842   -7.0811    0.7127   -7.1039    0.6662   -7.0566    0.6964   -7.0691    0.7152
  8.810   -7.0354    0.6768   -7.1502    0.6842   -7.0490    0.7148   -7.0724    0.6682   -7.0252    0.6979   -7.0377    0.7165
  8.820   -7.0032    0.6793   -7.1203    0.6844   -7.0168    0.7172   -7.0408    0.6704   -6.9937    0.6996   -7.0062    0.7181
  8.830   -6.9709    0.6821   -7.0903    0.6847   -6.9844    0.7199   -7.0091    0.6729   -6.9621    0.7015   -6.9745    0.7199
  8.840   -6.9384    0.6851   -7.0603    0.6851   -6.9519    0.7229   -6.9772    0.6757   -6.9304    0.7037   -6.9427    0.7220
  8.850   -6.9058    0.6886   -7.0302    0.6858   -6.9192    0.7262   -6.9452    0.6788   -6.8985    0.7062   -6.9108    0.7244
  8.860   -6.8729    0.6923   -7.0000    0.6866   -6.8863    0.7299   -6.9131    0.6822   -6.8664    0.7090   -6.8787    0.7271
  8.870   -6.8399    0.6965   -6.9697    0.6876   -6.8533    0.7340   -6.8809    0.6860   -6.8342    0.7121   -6.8465    0.7301
  8.880   -6.8067    0.7010   -6.9394    0.6888   -6.8200    0.7384   -6.8484    0.6901   -6.8018    0.7156   -6.8141    0.7334
  8.890   -6.7733    0.7059   -6.9089    0.6902   -6.7866    0.7433   -6.8158    0.6946   -6.7692    0.7194   -6.7815    0.7371
  8.900   -6.7397    0.7113   -6.8784    0.6918   -6.7529    0.7487   -6.7830    0.6995   -6.7364    0.7236   -6.7487    0.7412
  8.910   -6.7058    0.7172   -6.8477    0.6937   -6.7190    0.7545   -6.7501    0.7048   -6.7034    0.7282   -6.7157    0.7457
  8.920   -6.6717    0.7236   -6.8169    0.6958   -6.6849    0.7609   -6.7169    0.7106   -6.6702    0.7332   -6.6824    0.7507
  8.930   -6.6373    0.7306   -6.7860    0.6981   -6.6505    0.7679   -6.6835    0.7170   -6.6367    0.7388   -6.6490    0.7561
  8.940   -6.6027    0.7382   -6.7549    0.7008   -6.6159    0.7754   -6.6499    0.7239   -6.6030    0.7448   -6.6153    0.7621
  8.950   -6.5678    0.7465   -6.7236    0.7037   -6.5810    0.7837   -6.6161    0.7313   -6.5691    0.7514   -6.5813    0.7686
  8.960   -6.5326    0.7554   -6.6922    0.7069   -6.5458    0.7926   -6.5821    0.7394   -6.5349    0.7586   -6.5471    0.7757
  8.970   -6.4971    0.7652   -6.6607    0.7105   -6.5104    0.8023   -6.5478    0.7482   -6.5004    0.7665   -6.5126    0.7834
  8.980   -6.4614    0.7757   -6.6289    0.7144   -6.4746    0.8129   -6.5133    0.7578   -6.4656    0.7750   -6.4778    0.7919
  8.990   -6.4253    0.7872   -6.5970    0.7187   -6.4386    0.8244   -6.4786    0.7681   -6.4305    0.7843   -6.4427    0.8011
  9.000   -6.3889    0.7996   -6.5648    0.7235   -6.4023    0.8368   -6.4437    0.7793   -6.3952    0.7945   -6.4074    0.8111
  9.010   -6.3523    0.8131   -6.5325    0.7286   -6.3657    0.8504   -6.4085    0.7914   -6.3595    0.8055   -6.3717    0.8221
  9.020   -6.3153    0.8278   -6.4999    0.7342   -6.3289    0.8651   -6.3731    0.8046   -6.3236    0.8175   -6.3358    0.8339
  9.030   -6.2781    0.8437   -6.4671    0.7403   -6.2918    0.8810   -6.3374    0.8188   -6.2873    0.8305   -6.2996    0.8469
  9.040   -6.2406    0.8609   -6.4340    0.7470   -6.2544    0.8984   -6.3016    0.8343   -6.2508    0.8447   -6.2631    0.8610
  9.050   -6.2028    0.8797   -6.4007    0.7542   -6.2169    0.9172   -6.2657    0.8510   -6.2140    0.8601   -6.2263    0.8763
  9.060   -6.1649    0.9001   -6.3671    0.7620   -6.1791    0.9377   -6.2296    0.8692   -6.1769    0.8769   -6.1892    0.8930
  9.070   -6.1268    0.9223   -6.3333    0.7706   -6.1413    0.9599   -6.1934    0.8889   -6.1397    0.8952   -6.1520    0.9112
  9.080   -6.0887    0.9464   -6.2991    0.7798   -6.1035    0.9841   -6.1572    0.9102   -6.1022    0.9151   -6.1145    0.9310
  9.090   -6.0505    0.9726   -6.2647    0.7898   -6.0657    1.0104   -6.1211    0.9334   -6.0646    0.9367   -6.0770    0.9525
  9.100   -6.0124    1.0012   -6.2300    0.8007   -6.0280    1.0390   -6.0851    0.9585   -6.0270    0.9603   -6.0394    0.9760
  9.110   -5.9746    1.0322   -6.1950    0.8125   -5.9907    1.0701   -6.0494    0.9857   -5.9894    0.9860   -6.0019    1.0016
  9.120   -5.9372    1.0660   -6.1597    0.8253   -5.9538    1.1039   -6.0141    1.0152   -5.9520    1.0140   -5.9645    1.0295
  9.130   -5.9004    1.1027   -6.1241    0.8391   -5.9177    1.1407   -5.9794    1.0472   -5.9149    1.0445   -5.9274    1.0598
  9.140   -5.8645    1.1427   -6.0882    0.8542   -5.8825    1.1806   -5.9455    1.0819   -5.8783    1.0777   -5.8909    1.0929
  9.150   -5.8297    1.1861   -6.0520    0.8705   -5.8486    1.2238   -5.9127    1.1193   -5.8424    1.1138   -5.8550    1.1289
  9.160   -5.7966    1.2332   -6.0156    0.8882   -5.8164    1.2707   -5.8813    1.1599   -5.8075    1.1530   -5.8202    1.1680
  9.170   -5.7654    1.2842   -5.9790    0.9074   -5.7863    1.3214   -5.8516    1.2035   -5.7740    1.1956   -5.7867    1.2104
  9.180   -5.7369    1.3394   -5.9422    0.9283   -5.7589    1.3761   -5.8242    1.2505   -5.7422    1.2418   -5.7550    1.2565
  9.190   -5.7116    1.3990   -5.9053    0.9510   -5.7349    1.4349   -5.7995    1.3010   -5.7126    1.2917   -5.7256    1.3062
  9.200   -5.6902    1.4629   -5.8683    0.9756   -5.7149    1.4978   -5.7781    1.3548   -5.6859    1.3455   -5.6989    1.3599
  9.210   -5.6738    1.5312   -5.8314    1.0024   -5.6998    1.5649   -5.7607    1.4121   -5.6627    1.4033   -5.6758    1.4175
  9.220   -5.6631    1.6038   -5.7945    1.0315   -5.6907    1.6358   -5.7480    1.4726   -5.6438    1.4650   -5.6570    1.4790
  9.230   -5.6595    1.6803   -5.7580    1.0631   -5.6883    1.7102   -5.7408    1.5360   -5.6300    1.5304   -5.6432    1.5442
  9.240   -5.6639    1.7602   -5.7219    1.0975   -5.6940    1.7876   -5.7399    1.6018   -5.6222    1.5993   -5.6355    1.6129
  9.250   -5.6777    1.8426   -5.6864    1.1349   -5.7086    1.8668   -5.7463    1.6693   -5.6214    1.6711   -5.6348    1.6844
  9.260   -5.7019    1.9263   -5.6519    1.1755   -5.7332    1.9469   -5.7605    1.7376   -5.6286    1.7450   -5.6421    1.7581
  9.270   -5.7375    2.0096   -5.6186    1.2195   -5.7686    2.0262   -5.7832    1.8055   -5.6445    1.8199   -5.6582    1.8327
  9.280   -5.7854    2.0907   -5.5869    1.2673   -5.8154    2.1029   -5.8149    1.8716   -5.6701    1.8944   -5.6838    1.9069
  9.290   -5.8457    2.1672   -5.5572    1.3191   -5.8737    2.1749   -5.8555    1.9342   -5.7055    1.9670   -5.7194    1.9792
  9.300   -5.9183    2.2366   -5.5302    1.3750   -5.9430    2.2399   -5.9048    1.9918   -5.7511    2.0359   -5.7649    2.0477
  9.310   -6.0023    2.2964   -5.5065    1.4352   -6.0226    2.2957   -5.9620    2.0427   -5.8062    2.0990   -5.8201    2.1104
  9.320   -6.0960    2.3440   -5.4868    1.4999   -6.1108    2.3401   -6.0259    2.0853   -5.8701    2.1546   -5.8840    2.1656
  9.330   -6.1972    2.3773   -5.4721    1.5691   -6.2054    2.3715   -6.0950    2.1185   -5.9413    2.2010   -5.9551    2.2116
  9.340   -6.3030    2.3950   -5.4632    1.6425   -6.3041    2.3887   -6.1674    2.1415   -6.0181    2.2370   -6.0318    2.2472
  9.350   -6.4103    2.3964   -5.4614    1.7200   -6.4040    2.3913   -6.2412    2.1543   -6.0984    2.2621   -6.1119    2.2718
  9.360   -6.5157    2.3816   -5.4678    1.8008   -6.5024    2.3795   -6.3145    2.1571   -6.1800    2.2759   -6.1934    2.2853
  9.370   -6.6163    2.3518   -5.4835    1.8843   -6.5967    2.3543   -6.3858    2.1506   -6.2612    2.2791   -6.2744    2.2880
  9.380   -6.7096    2.3087   -5.5099    1.9692   -6.6849    2.3171   -6.4537    2.1359   -6.3402    2.2724   -6.3532    2.2809
  9.390   -6.7936    2.2546   -5.5479    2.0539   -6.7654    2.2698   -6.5175    2.1144   -6.4160    2.2571   -6.4286    2.2651
  9.400   -6.8674    2.1917   -5.5984    2.1366   -6.8373    2.2143   -6.5767    2.0872   -6.4878    2.2341   -6.5001    2.2419
  9.410   -6.9303    2.1226   -5.6617    2.2148   -6.9001    2.1526   -6.6315    2.0554   -6.5552    2.2048   -6.5671    2.2122
  9.420   -6.9825    2.0493   -5.7379    2.2861   -6.9537    2.0863   -6.6818    2.0198   -6.6182    2.1698   -6.6296    2.1770
  9.430   -7.0245    1.9738   -5.8261    2.3477   -6.9984    2.0170   -6.7281    1.9809   -6.6767    2.1300   -6.6877    2.1369
  9.440   -7.0570    1.8975   -5.9248    2.3970   -7.0347    1.9460   -6.7706    1.9392   -6.7309    2.0858   -6.7414    2.0925
  9.450   -7.0810    1.8215   -6.0320    2.4317   -7.0632    1.8742   -6.8096    1.8947   -6.7806    2.0373   -6.7906    2.0440
  9.460   -7.0973    1.7467   -6.1446    2.4501   -7.0843    1.8023   -6.8449    1.8474   -6.8258    1.9849   -6.8353    1.9916
  9.470   -7.1067    1.6736   -6.2596    2.4511   -7.0988    1.7310   -6.8763    1.7974   -6.8660    1.9289   -6.8751    1.9355
  9.480   -7.1100    1.6026   -6.3733    2.4346   -7.1070    1.6608   -6.9038    1.7448   -6.9010    1.8695   -6.9096    1.8762
  9.490   -7.1080    1.5340   -6.4825    2.4015   -7.1095    1.5920   -6.9267    1.6900   -6.9302    1.8073   -6.9384    1.8141
  9.500   -7.1011    1.4680   -6.5842    2.3532   -7.1067    1.5252   -6.9449    1.6334   -6.9533    1.7430   -6.9613    1.7499
  9.510   -7.0899    1.4047   -6.6761    2.2921   -7.0991    1.4606   -6.9581    1.5754   -6.9703    1.6773   -6.9779    1.6845
  9.520   -7.0750    1.3443   -6.7565    2.2206   -7.0871    1.3985   -6.9662    1.5168   -6.9810    1.6112   -6.9884    1.6185
  9.530   -7.0567    1.2869   -6.8245    2.1415   -7.0713    1.3391   -6.9691    1.4583   -6.9856    1.5454   -6.9928    1.5529
  9.540   -7.0355    1.2325   -6.8798    2.0572   -7.0520    1.2826   -6.9672    1.4005   -6.9845    1.4807   -6.9915    1.4884
  9.550   -7.0118    1.1810   -6.9228    1.9703   -7.0298    1.2291   -6.9607    1.3439   -6.9781    1.4177   -6.9849    1.4256
  9.560   -6.9861    1.1326   -6.9541    1.8827   -7.0052    1.1786   -6.9500    1.2890   -6.9669    1.3570   -6.9736    1.3650
  9.570   -6.9587    1.0871   -6.9748    1.7960   -6.9785    1.1312   -6.9356    1.2362   -6.9515    1.2990   -6.9581    1.3071
  9.580   -6.9299    1.0445   -6.9860    1.7115   -6.9501    1.0868   -6.9179    1.1858   -6.9325    1.2438   -6.9391    1.2521
  9.590   -6.9000    1.0046   -6.9889    1.6301   -6.9205    1.0453   -6.8974    1.1379   -6.9105    1.1917   -6.9170    1.2001
  9.600   -6.8692    0.9673   -6.9846    1.5525   -6.8898    1.0065   -6.8746    1.0927   -6.8860    1.1426   -6.8924    1.1512
  9.610   -6.8379    0.9325   -6.9743    1.4790   -6.8585    0.9703   -6.8499    1.0500   -6.8594    1.0967   -6.8658    1.1054
  9.620   -6.8062    0.9000   -6.9589    1.4098   -6.8266    0.9366   -6.8235    1.0100   -6.8312    1.0537   -6.8376    1.0625
  9.630   -6.7742    0.8697   -6.9394    1.3449   -6.7945    0.9052   -6.7960    0.9724   -6.8018    1.0136   -6.8082    1.0225
  9.640   -6.7421    0.8414   -6.9165    1.2844   -6.7621    0.8760   -6.7675    0.9373   -6.7715    0.9762   -6.7778    0.9852
  9.650   -6.7101    0.8150   -6.8909    1.2280   -6.7298    0.8487   -6.7383    0.9044   -6.7405    0.9414   -6.7468    0.9504
  9.660   -6.6781    0.7903   -6.8633    1.1755   -6.6976    0.8233   -6.7086    0.8737   -6.7091    0.9090   -6.7154    0.9181
  9.670   -6.6464    0.7672   -6.8340    1.1268   -6.6655    0.7995   -6.6785    0.8450   -6.6774    0.8788   -6.6837    0.8880
  9.680   -6.6148    0.7457   -6.8034    1.0816   -6.6337    0.7774   -6.6483    0.8182   -6.6456    0.8507   -6.6520    0.8599
  9.690   -6.5836    0.7255   -6.7720    1.0396   -6.6021    0.7566   -6.6180    0.7932   -6.6139    0.8245   -6.6202    0.8338
  9.700   -6.5527    0.7065   -6.7400    1.0007   -6.5709    0.7372   -6.5878    0.7697   -6.5822    0.8001   -6.5886    0.8094
  9.710   -6.5221    0.6888   -6.7075    0.9645   -6.5401    0.7190   -6.5577    0.7478   -6.5508    0.7774   -6.5571    0.7866
  9.720   -6.4919    0.6721   -6.6749    0.9309   -6.5096    0.7019   -6.5277    0.7273   -6.5196    0.7561   -6.5259    0.7654
  9.730   -6.4621    0.6564   -6.6422    0.8997   -6.4795    0.6859   -6.4980    0.7080   -6.4887    0.7362   -6.4950    0.7455
  9.740   -6.4327    0.6416   -6.6096    0.8706   -6.4499    0.6708   -6.4685    0.6899   -6.4581    0.7175   -6.4645    0.7269
  9.750   -6.4037    0.6277   -6.5771    0.8435   -6.4206    0.6566   -6.4393    0.6730   -6.4279    0.7001   -6.4343    0.7094
  9.760   -6.3751    0.6146   -6.5448    0.8183   -6.3918    0.6432   -6.4104    0.6570   -6.3981    0.6837   -6.4045    0.6930
  9.770   -6.3469    0.6021   -6.5128    0.7948   -6.3633    0.6305   -6.3819    0.6420   -6.3687    0.6682   -6.3750    0.6776
  9.780   -6.3190    0.5904   -6.4812    0.7727   -6.3353    0.6185   -6.3537    0.6278   -6.3396    0.6537   -6.3460    0.6631
  9.790   -6.2916    0.5793   -6.4499    0.7521   -6.3077    0.6072   -6.3258    0.6144   -6.3110    0.6401   -6.3174    0.6494
  9.800   -6.2645    0.5687   -6.4190    0.7328   -6.2804    0.5964   -6.2983    0.6018   -6.2828    0.6272   -6.2891    0.6365
  9.810   -6.2378    0.5587   -6.3886    0.7147   -6.2536    0.5862   -6.2711    0.5899   -6.2549    0.6150   -6.2613    0.6243
  9.820   -6.2115    0.5492   -6.3585    0.6977   -6.2271    0.5765   -6.2443    0.5785   -6.2275    0.6035   -6.2339    0.6127
  9.830   -6.1856    0.5401   -6.3289    0.6817   -6.2010    0.5673   -6.2179    0.5678   -6.2005    0.5926   -6.2068    0.6018
  9.840   -6.1600    0.5315   -6.2996    0.6667   -6.1752    0.5585   -6.1918    0.5576   -6.1738    0.5822   -6.1802    0.5914
  9.850   -6.1347    0.5233   -6.2708    0.6525   -6.1498    0.5501   -6.1660    0.5480   -6.1475    0.5724   -6.1539    0.5816
  9.860   -6.1098    0.5154   -6.2425    0.6391   -6.1247    0.5421   -6.1406    0.5387   -6.1216    0.5630   -6.1280    0.5722
  9.870   -6.0852    0.5079   -6.2145    0.6264   -6.1000    0.5345   -6.1154    0.5300   -6.0961    0.5542   -6.1024    0.5633
  9.880   -6.0609    0.5007   -6.1870    0.6144   -6.0756    0.5272   -6.0907    0.5216   -6.0709    0.5457   -6.0772    0.5548
  9.890   -6.0369    0.4938   -6.1599    0.6031   -6.0515    0.5202   -6.0662    0.5136   -6.0460    0.5376   -6.0524    0.5467
  9.900   -6.0132    0.4872   -6.1331    0.5923   -6.0277    0.5134   -6.0420    0.5060   -6.0215    0.5299   -6.0278    0.5390
  9.910   -5.9898    0.4809   -6.1068    0.5820   -6.0042    0.5070   -6.0181    0.4987   -5.9973    0.5225   -6.0036    0.5316
  9.920   -5.9667    0.4748   -6.0808    0.5723   -5.9810    0.5008   -5.9945    0.4917   -5.9734    0.5155   -5.9797    0.5245
  9.930   -5.9438    0.4690   -6.0552    0.5630   -5.9580    0.4948   -5.9712    0.4851   -5.9498    0.5087   -5.9561    0.5177
  9.940   -5.9213    0.4634   -6.0299    0.5542   -5.9354    0.4891   -5.9482    0.4786   -5.9265    0.5022   -5.9328    0.5112
  9.950   -5.8989    0.4580   -6.0050    0.5458   -5.9129    0.4836   -5.9254    0.4725   -5.9035    0.4960   -5.9098    0.5050
  9.960   -5.8769    0.4528   -5.9805    0.5378   -5.8908    0.4783   -5.9029    0.4666   -5.8807    0.4900   -5.8871    0.4990
  9.970   -5.8550    0.4478   -5.9562    0.5301   -5.8689    0.4732   -5.8807    0.4609   -5.8583    0.4843   -5.8646    0.4932
  9.980   -5.8334    0.4429   -5.9323    0.5227   -5.8472    0.4682   -5.8587    0.4554   -5.8361    0.4787   -5.8424    0.4876
  9.990   -5.8121    0.4382   -5.9087    0.5157   -5.8258    0.4634   -5.8369    0.4501   -5.8141    0.4734   -5.8204    0.4823
 10.000   -5.7909    0.4337   -5.8854    0.5089   -5.8046    0.4588   -5.8154    0.4450   -5.7924    0.4683   -5.7987    0.4771
