# Macroscopic dielectric function obtained with the BS equation.
#  RPA L0 with KS energies and KS wavefunctions     LOCAL FIELD EFFECTS INCLUDED
# RESONANT-ONLY calculation
# Coulomb term constructed with full W(G1,G2)
# Scissor operator energy =  0.8000 [eV]
# Tolerance = -0.0010 0.0000
# npweps  = 113
# npwwfn  = 283
# nbands  = 8
# loband  = 2
# nkibz   = 3
# nkbz    = 8
# Lorentzian broadening =  0.0001 [eV]
# List of q-points for the optical limit:
# q =  0.938821, 0.000000, 0.000000, [Reduced coords] 
# q =  0.000000, 0.938821, 0.000000, [Reduced coords] 
# q =  0.000000, 0.000000, 0.938821, [Reduced coords] 
# q =  0.000000, 0.813043, 0.813043, [Reduced coords] 
# q =  0.813043, 0.000000, 0.813043, [Reduced coords] 
# q =  0.813043, 0.813043, 0.000000, [Reduced coords] 
# omega [eV]    RE(eps(q=1)) IM(eps(q=1) RE(eps(q=2) ) ... 
  0.000   55.7183    0.0000   55.6640    0.0000   55.6754    0.0000   55.6940    0.0000   55.7720    0.0000   55.7677    0.0000
  0.010   55.7189    0.0087   55.6646    0.0093   55.6759    0.0093   55.6945    0.0087   55.7725    0.0094   55.7682    0.0094
  0.020   55.7206    0.0174   55.6663    0.0186   55.6776    0.0185   55.6962    0.0174   55.7742    0.0188   55.7699    0.0188
  0.030   55.7234    0.0261   55.6691    0.0278   55.6804    0.0278   55.6990    0.0260   55.7770    0.0282   55.7727    0.0283
  0.040   55.7273    0.0348   55.6730    0.0371   55.6843    0.0371   55.7030    0.0347   55.7810    0.0376   55.7767    0.0377
  0.050   55.7324    0.0435   55.6781    0.0464   55.6894    0.0463   55.7080    0.0434   55.7861    0.0470   55.7818    0.0471
  0.060   55.7386    0.0522   55.6843    0.0557   55.6956    0.0556   55.7142    0.0521   55.7923    0.0564   55.7880    0.0565
  0.070   55.7459    0.0610   55.6916    0.0650   55.7029    0.0649   55.7215    0.0608   55.7996    0.0659   55.7953    0.0660
  0.080   55.7544    0.0697   55.7000    0.0743   55.7113    0.0742   55.7300    0.0695   55.8081    0.0753   55.8038    0.0754
  0.090   55.7639    0.0784   55.7095    0.0836   55.7209    0.0835   55.7395    0.0782   55.8177    0.0847   55.8134    0.0849
  0.100   55.7746    0.0872   55.7202    0.0929   55.7315    0.0928   55.7502    0.0870   55.8284    0.0942   55.8241    0.0944
  0.110   55.7865    0.0959   55.7320    0.1023   55.7433    0.1021   55.7621    0.0957   55.8403    0.1036   55.8360    0.1038
  0.120   55.7995    0.1047   55.7450    0.1116   55.7563    0.1115   55.7750    0.1044   55.8533    0.1131   55.8490    0.1133
  0.130   55.8136    0.1135   55.7590    0.1210   55.7704    0.1208   55.7891    0.1132   55.8674    0.1226   55.8631    0.1228
  0.140   55.8288    0.1223   55.7742    0.1304   55.7856    0.1302   55.8044    0.1220   55.8827    0.1321   55.8784    0.1324
  0.150   55.8452    0.1311   55.7906    0.1398   55.8019    0.1396   55.8208    0.1308   55.8992    0.1416   55.8949    0.1419
  0.160   55.8627    0.1400   55.8081    0.1492   55.8194    0.1490   55.8383    0.1396   55.9167    0.1512   55.9124    0.1515
  0.170   55.8814    0.1488   55.8267    0.1586   55.8380    0.1584   55.8570    0.1484   55.9355    0.1607   55.9312    0.1610
  0.180   55.9012    0.1577   55.8465    0.1680   55.8578    0.1678   55.8768    0.1572   55.9553    0.1703   55.9510    0.1706
  0.190   55.9222    0.1666   55.8674    0.1775   55.8787    0.1773   55.8977    0.1661   55.9764    0.1799   55.9720    0.1802
  0.200   55.9443    0.1755   55.8894    0.1870   55.9008    0.1868   55.9198    0.1750   55.9985    0.1895   55.9942    0.1899
  0.210   55.9676    0.1844   55.9126    0.1965   55.9240    0.1963   55.9431    0.1839   56.0219    0.1992   56.0176    0.1995
  0.220   55.9920    0.1933   55.9370    0.2061   55.9484    0.2058   55.9675    0.1928   56.0464    0.2088   56.0420    0.2092
  0.230   56.0176    0.2023   55.9625    0.2156   55.9739    0.2153   55.9931    0.2018   56.0720    0.2185   56.0677    0.2189
  0.240   56.0443    0.2113   55.9892    0.2252   56.0006    0.2249   56.0198    0.2108   56.0988    0.2282   56.0945    0.2287
  0.250   56.0723    0.2203   56.0171    0.2348   56.0285    0.2345   56.0477    0.2198   56.1268    0.2380   56.1225    0.2384
  0.260   56.1014    0.2294   56.0461    0.2445   56.0575    0.2442   56.0768    0.2288   56.1560    0.2478   56.1517    0.2482
  0.270   56.1316    0.2385   56.0763    0.2542   56.0877    0.2538   56.1071    0.2379   56.1864    0.2576   56.1820    0.2581
  0.280   56.1631    0.2476   56.1076    0.2639   56.1191    0.2635   56.1385    0.2470   56.2179    0.2674   56.2136    0.2679
  0.290   56.1957    0.2567   56.1402    0.2736   56.1516    0.2733   56.1711    0.2561   56.2506    0.2773   56.2463    0.2778
  0.300   56.2295    0.2659   56.1739    0.2834   56.1853    0.2830   56.2049    0.2652   56.2845    0.2872   56.2802    0.2878
  0.310   56.2645    0.2751   56.2088    0.2932   56.2203    0.2928   56.2399    0.2744   56.3196    0.2972   56.3153    0.2977
  0.320   56.3007    0.2844   56.2449    0.3030   56.2564    0.3027   56.2761    0.2836   56.3559    0.3071   56.3516    0.3077
  0.330   56.3381    0.2937   56.2822    0.3129   56.2937    0.3125   56.3135    0.2929   56.3934    0.3172   56.3891    0.3178
  0.340   56.3767    0.3030   56.3207    0.3229   56.3322    0.3225   56.3521    0.3022   56.4321    0.3272   56.4278    0.3278
  0.350   56.4166    0.3123   56.3604    0.3328   56.3719    0.3324   56.3919    0.3115   56.4720    0.3373   56.4677    0.3380
  0.360   56.4576    0.3217   56.4013    0.3428   56.4129    0.3424   56.4329    0.3209   56.5132    0.3475   56.5089    0.3481
  0.370   56.4998    0.3312   56.4435    0.3529   56.4550    0.3525   56.4751    0.3303   56.5556    0.3577   56.5512    0.3584
  0.380   56.5433    0.3407   56.4869    0.3630   56.4984    0.3625   56.5186    0.3398   56.5992    0.3679   56.5948    0.3686
  0.390   56.5881    0.3502   56.5315    0.3731   56.5430    0.3727   56.5633    0.3493   56.6440    0.3782   56.6397    0.3789
  0.400   56.6340    0.3598   56.5773    0.3833   56.5889    0.3829   56.6092    0.3589   56.6901    0.3885   56.6857    0.3893
  0.410   56.6812    0.3694   56.6244    0.3936   56.6360    0.3931   56.6564    0.3685   56.7374    0.3989   56.7331    0.3997
  0.420   56.7297    0.3791   56.6727    0.4039   56.6843    0.4034   56.7048    0.3781   56.7860    0.4094   56.7816    0.4101
  0.430   56.7794    0.3888   56.7223    0.4142   56.7339    0.4137   56.7545    0.3878   56.8359    0.4199   56.8315    0.4206
  0.440   56.8304    0.3985   56.7731    0.4246   56.7847    0.4241   56.8055    0.3976   56.8870    0.4304   56.8826    0.4312
  0.450   56.8826    0.4084   56.8252    0.4351   56.8369    0.4345   56.8577    0.4074   56.9394    0.4410   56.9350    0.4418
  0.460   56.9361    0.4182   56.8786    0.4456   56.8903    0.4450   56.9112    0.4172   56.9930    0.4517   56.9887    0.4525
  0.470   56.9910    0.4282   56.9333    0.4561   56.9450    0.4556   56.9660    0.4271   57.0480    0.4624   57.0436    0.4632
  0.480   57.0471    0.4382   56.9892    0.4668   57.0009    0.4662   57.0221    0.4371   57.1043    0.4732   57.0999    0.4740
  0.490   57.1045    0.4482   57.0465    0.4775   57.0582    0.4769   57.0795    0.4471   57.1618    0.4840   57.1575    0.4849
  0.500   57.1632    0.4583   57.1050    0.4882   57.1168    0.4876   57.1382    0.4572   57.2207    0.4949   57.2163    0.4958
  0.510   57.2232    0.4685   57.1649    0.4990   57.1767    0.4984   57.1982    0.4673   57.2809    0.5059   57.2765    0.5068
  0.520   57.2846    0.4787   57.2261    0.5099   57.2379    0.5093   57.2595    0.4775   57.3425    0.5169   57.3381    0.5178
  0.530   57.3473    0.4890   57.2887    0.5209   57.3004    0.5202   57.3222    0.4878   57.4053    0.5280   57.4009    0.5290
  0.540   57.4114    0.4994   57.3525    0.5319   57.3643    0.5312   57.3862    0.4982   57.4695    0.5392   57.4652    0.5402
  0.550   57.4767    0.5098   57.4177    0.5430   57.4296    0.5423   57.4516    0.5086   57.5351    0.5504   57.5307    0.5514
  0.560   57.5435    0.5203   57.4843    0.5541   57.4962    0.5535   57.5183    0.5190   57.6021    0.5618   57.5977    0.5628
  0.570   57.6116    0.5308   57.5523    0.5654   57.5641    0.5647   57.5864    0.5296   57.6704    0.5732   57.6660    0.5742
  0.580   57.6812    0.5415   57.6216    0.5767   57.6335    0.5760   57.6559    0.5402   57.7401    0.5847   57.7357    0.5857
  0.590   57.7521    0.5522   57.6923    0.5881   57.7042    0.5874   57.7268    0.5509   57.8112    0.5962   57.8068    0.5973
  0.600   57.8244    0.5630   57.7644    0.5996   57.7763    0.5988   57.7990    0.5617   57.8837    0.6079   57.8793    0.6089
  0.610   57.8981    0.5739   57.8379    0.6111   57.8499    0.6104   57.8727    0.5725   57.9576    0.6196   57.9532    0.6207
  0.620   57.9732    0.5848   57.9128    0.6228   57.9248    0.6220   57.9478    0.5835   58.0330    0.6314   58.0285    0.6325
  0.630   58.0498    0.5958   57.9892    0.6345   58.0012    0.6337   58.0244    0.5945   58.1097    0.6433   58.1053    0.6444
  0.640   58.1278    0.6069   58.0670    0.6463   58.0790    0.6455   58.1024    0.6056   58.1880    0.6553   58.1835    0.6564
  0.650   58.2073    0.6181   58.1462    0.6582   58.1583    0.6574   58.1818    0.6167   58.2677    0.6674   58.2632    0.6685
  0.660   58.2882    0.6294   58.2270    0.6702   58.2390    0.6694   58.2627    0.6280   58.3488    0.6795   58.3444    0.6807
  0.670   58.3706    0.6408   58.3091    0.6823   58.3212    0.6815   58.3451    0.6394   58.4315    0.6918   58.4270    0.6930
  0.680   58.4545    0.6523   58.3928    0.6945   58.4049    0.6936   58.4290    0.6508   58.5156    0.7042   58.5112    0.7054
  0.690   58.5399    0.6638   58.4780    0.7067   58.4901    0.7059   58.5143    0.6624   58.6013    0.7166   58.5968    0.7179
  0.700   58.6269    0.6755   58.5647    0.7191   58.5769    0.7183   58.6012    0.6740   58.6884    0.7292   58.6840    0.7305
  0.710   58.7153    0.6872   58.6529    0.7316   58.6651    0.7308   58.6897    0.6857   58.7771    0.7419   58.7727    0.7432
  0.720   58.8053    0.6991   58.7426    0.7442   58.7549    0.7433   58.7796    0.6976   58.8674    0.7547   58.8629    0.7560
  0.730   58.8969    0.7111   58.8339    0.7569   58.8462    0.7560   58.8711    0.7095   58.9592    0.7676   58.9547    0.7689
  0.740   58.9900    0.7231   58.9268    0.7697   58.9391    0.7688   58.9642    0.7216   59.0526    0.7806   59.0481    0.7819
  0.750   59.0847    0.7353   59.0213    0.7826   59.0336    0.7817   59.0589    0.7337   59.1476    0.7937   59.1431    0.7950
  0.760   59.1810    0.7476   59.1173    0.7957   59.1296    0.7948   59.1552    0.7460   59.2442    0.8069   59.2397    0.8083
  0.770   59.2790    0.7600   59.2149    0.8088   59.2273    0.8079   59.2531    0.7583   59.3424    0.8203   59.3379    0.8216
  0.780   59.3785    0.7725   59.3142    0.8221   59.3266    0.8212   59.3526    0.7708   59.4422    0.8337   59.4377    0.8351
  0.790   59.4797    0.7851   59.4151    0.8355   59.4276    0.8345   59.4538    0.7834   59.5437    0.8473   59.5392    0.8488
  0.800   59.5826    0.7978   59.5177    0.8490   59.5302    0.8480   59.5566    0.7962   59.6469    0.8611   59.6424    0.8625
  0.810   59.6871    0.8107   59.6219    0.8627   59.6344    0.8617   59.6611    0.8090   59.7517    0.8749   59.7472    0.8764
  0.820   59.7934    0.8236   59.7279    0.8764   59.7404    0.8754   59.7673    0.8220   59.8582    0.8889   59.8537    0.8904
  0.830   59.9013    0.8368   59.8355    0.8903   59.8481    0.8893   59.8752    0.8351   59.9665    0.9031   59.9620    0.9045
  0.840   60.0110    0.8500   59.9449    0.9044   59.9575    0.9034   59.9848    0.8483   60.0765    0.9173   60.0720    0.9188
  0.850   60.1224    0.8634   60.0560    0.9186   60.0686    0.9176   60.0962    0.8617   60.1882    0.9317   60.1837    0.9332
  0.860   60.2356    0.8769   60.1688    0.9329   60.1815    0.9319   60.2093    0.8751   60.3017    0.9463   60.2972    0.9478
  0.870   60.3506    0.8905   60.2835    0.9474   60.2962    0.9463   60.3243    0.8888   60.4170    0.9610   60.4125    0.9625
  0.880   60.4673    0.9043   60.3999    0.9620   60.4126    0.9609   60.4410    0.9026   60.5341    0.9758   60.5296    0.9774
  0.890   60.5859    0.9182   60.5181    0.9768   60.5309    0.9757   60.5595    0.9165   60.6531    0.9908   60.6485    0.9924
  0.900   60.7063    0.9323   60.6382    0.9917   60.6510    0.9906   60.6799    0.9305   60.7739    1.0060   60.7693    1.0076
  0.910   60.8286    0.9465   60.7602    1.0068   60.7730    1.0057   60.8022    0.9448   60.8965    1.0213   60.8920    1.0229
  0.920   60.9528    0.9609   60.8840    1.0220   60.8968    1.0209   60.9263    0.9591   61.0210    1.0368   61.0165    1.0384
  0.930   61.0789    0.9754   61.0097    1.0374   61.0226    1.0363   61.0523    0.9736   61.1475    1.0525   61.1429    1.0541
  0.940   61.2069    0.9901   61.1373    1.0530   61.1502    1.0519   61.1803    0.9883   61.2759    1.0683   61.2713    1.0700
  0.950   61.3368    1.0050   61.2668    1.0687   61.2798    1.0676   61.3102    1.0032   61.4062    1.0843   61.4016    1.0860
  0.960   61.4687    1.0200   61.3984    1.0847   61.4114    1.0835   61.4421    1.0182   61.5385    1.1005   61.5339    1.1022
  0.970   61.6026    1.0352   61.5319    1.1008   61.5449    1.0996   61.5759    1.0334   61.6728    1.1168   61.6682    1.1186
  0.980   61.7385    1.0506   61.6674    1.1170   61.6805    1.1159   61.7118    1.0488   61.8091    1.1334   61.8045    1.1351
  0.990   61.8765    1.0661   61.8049    1.1335   61.8181    1.1323   61.8497    1.0643   61.9475    1.1501   61.9429    1.1519
  1.000   62.0165    1.0818   61.9445    1.1502   61.9577    1.1490   61.9897    1.0800   62.0879    1.1671   62.0833    1.1688
  1.010   62.1586    1.0978   62.0862    1.1670   62.0994    1.1658   62.1317    1.0959   62.2304    1.1842   62.2258    1.1860
  1.020   62.3028    1.1139   62.2300    1.1841   62.2433    1.1829   62.2759    1.1120   62.3751    1.2016   62.3705    1.2033
  1.030   62.4492    1.1302   62.3759    1.2013   62.3892    1.2001   62.4222    1.1283   62.5219    1.2191   62.5173    1.2209
  1.040   62.5977    1.1467   62.5240    1.2188   62.5373    1.2176   62.5707    1.1448   62.6708    1.2369   62.6662    1.2387
  1.050   62.7484    1.1634   62.6743    1.2365   62.6876    1.2352   62.7214    1.1615   62.8220    1.2548   62.8174    1.2567
  1.060   62.9014    1.1803   62.8267    1.2544   62.8402    1.2531   62.8743    1.1784   62.9754    1.2730   62.9708    1.2749
  1.070   63.0565    1.1974   62.9814    1.2725   62.9949    1.2712   63.0294    1.1956   63.1311    1.2915   63.1264    1.2933
  1.080   63.2140    1.2147   63.1384    1.2908   63.1520    1.2895   63.1868    1.2129   63.2890    1.3101   63.2844    1.3120
  1.090   63.3738    1.2323   63.2977    1.3094   63.3113    1.3081   63.3466    1.2305   63.4493    1.3290   63.4446    1.3309
  1.100   63.5359    1.2500   63.4593    1.3282   63.4730    1.3269   63.5086    1.2482   63.6119    1.3481   63.6072    1.3501
  1.110   63.7004    1.2681   63.6233    1.3473   63.6370    1.3459   63.6731    1.2663   63.7769    1.3675   63.7722    1.3695
  1.120   63.8673    1.2863   63.7897    1.3666   63.8034    1.3652   63.8399    1.2845   63.9442    1.3872   63.9396    1.3891
  1.130   64.0366    1.3048   63.9585    1.3861   63.9723    1.3848   64.0092    1.3030   64.1141    1.4071   64.1094    1.4090
  1.140   64.2084    1.3235   64.1297    1.4059   64.1436    1.4046   64.1809    1.3217   64.2864    1.4272   64.2817    1.4292
  1.150   64.3827    1.3425   64.3035    1.4260   64.3174    1.4246   64.3552    1.3407   64.4612    1.4476   64.4566    1.4496
  1.160   64.5595    1.3618   64.4798    1.4464   64.4937    1.4450   64.5320    1.3600   64.6386    1.4683   64.6339    1.4703
  1.170   64.7389    1.3813   64.6586    1.4670   64.6726    1.4656   64.7113    1.3795   64.8186    1.4893   64.8139    1.4913
  1.180   64.9209    1.4010   64.8400    1.4879   64.8541    1.4865   64.8933    1.3993   65.0011    1.5106   64.9964    1.5126
  1.190   65.1055    1.4211   65.0241    1.5091   65.0382    1.5076   65.0779    1.4194   65.1864    1.5322   65.1817    1.5342
  1.200   65.2929    1.4414   65.2108    1.5305   65.2250    1.5291   65.2652    1.4397   65.3743    1.5540   65.3696    1.5561
  1.210   65.4829    1.4620   65.4003    1.5523   65.4145    1.5509   65.4552    1.4604   65.5649    1.5762   65.5602    1.5783
  1.220   65.6757    1.4830   65.5925    1.5744   65.6068    1.5730   65.6480    1.4813   65.7584    1.5987   65.7537    1.6008
  1.230   65.8714    1.5042   65.7875    1.5968   65.8018    1.5954   65.8436    1.5025   65.9546    1.6215   65.9499    1.6236
  1.240   66.0698    1.5257   65.9853    1.6196   65.9997    1.6181   66.0420    1.5241   66.1537    1.6447   66.1490    1.6468
  1.250   66.2712    1.5476   66.1860    1.6426   66.2005    1.6412   66.2433    1.5460   66.3557    1.6682   66.3510    1.6703
  1.260   66.4755    1.5697   66.3897    1.6660   66.4042    1.6645   66.4476    1.5681   66.5606    1.6920   66.5559    1.6941
  1.270   66.6827    1.5922   66.5963    1.6898   66.6108    1.6883   66.6548    1.5907   66.7686    1.7162   66.7638    1.7183
  1.280   66.8930    1.6151   66.8059    1.7139   66.8205    1.7124   66.8650    1.6135   66.9795    1.7407   66.9748    1.7429
  1.290   67.1063    1.6382   67.0185    1.7384   67.0332    1.7368   67.0784    1.6367   67.1935    1.7657   67.1888    1.7678
  1.300   67.3228    1.6618   67.2343    1.7632   67.2490    1.7617   67.2948    1.6603   67.4107    1.7910   67.4060    1.7932
  1.310   67.5425    1.6857   67.4532    1.7884   67.4680    1.7869   67.5144    1.6843   67.6311    1.8167   67.6263    1.8189
  1.320   67.7653    1.7100   67.6753    1.8140   67.6902    1.8125   67.7372    1.7086   67.8546    1.8427   67.8499    1.8450
  1.330   67.9914    1.7346   67.9007    1.8400   67.9156    1.8385   67.9633    1.7333   68.0815    1.8692   68.0768    1.8715
  1.340   68.2209    1.7597   68.1294    1.8664   68.1444    1.8649   68.1927    1.7583   68.3117    1.8962   68.3070    1.8984
  1.350   68.4537    1.7851   68.3614    1.8933   68.3765    1.8917   68.4255    1.7838   68.5453    1.9235   68.5405    1.9257
  1.360   68.6899    1.8110   68.5969    1.9205   68.6120    1.9189   68.6617    1.8097   68.7823    1.9513   68.7776    1.9535
  1.370   68.9297    1.8372   68.8358    1.9482   68.8510    1.9466   68.9014    1.8360   69.0228    1.9795   69.0181    1.9818
  1.380   69.1729    1.8639   69.0783    1.9764   69.0936    1.9748   69.1447    1.8628   69.2669    2.0082   69.2622    2.0105
  1.390   69.4198    1.8911   69.3243    2.0050   69.3397    2.0034   69.3916    1.8900   69.5146    2.0374   69.5099    2.0396
  1.400   69.6704    1.9187   69.5740    2.0341   69.5895    2.0324   69.6421    1.9176   69.7660    2.0670   69.7613    2.0693
  1.410   69.9247    1.9467   69.8275    2.0636   69.8430    2.0620   69.8964    1.9457   70.0212    2.0971   70.0164    2.0994
  1.420   70.1827    1.9753   70.0847    2.0937   70.1002    2.0920   70.1544    1.9743   70.2801    2.1278   70.2754    2.1301
  1.430   70.4447    2.0043   70.3457    2.1242   70.3614    2.1226   70.4164    2.0034   70.5429    2.1590   70.5382    2.1613
  1.440   70.7105    2.0338   70.6107    2.1553   70.6264    2.1537   70.6822    2.0330   70.8097    2.1907   70.8050    2.1930
  1.450   70.9804    2.0638   70.8796    2.1869   70.8954    2.1853   70.9521    2.0631   71.0805    2.2229   71.0757    2.2252
  1.460   71.2543    2.0944   71.1526    2.2191   71.1685    2.2174   71.2260    2.0937   71.3554    2.2557   71.3506    2.2580
  1.470   71.5324    2.1255   71.4297    2.2518   71.4456    2.2501   71.5041    2.1249   71.6344    2.2891   71.6296    2.2914
  1.480   71.8147    2.1571   71.7110    2.2851   71.7270    2.2834   71.7863    2.1566   71.9177    2.3231   71.9129    2.3254
  1.490   72.1013    2.1893   71.9966    2.3190   72.0127    2.3173   72.0729    2.1889   72.2053    2.3577   72.2005    2.3600
  1.500   72.3923    2.2221   72.2865    2.3535   72.3027    2.3518   72.3639    2.2218   72.4972    2.3929   72.4925    2.3952
  1.510   72.6877    2.2555   72.5809    2.3887   72.5972    2.3869   72.6593    2.2553   72.7937    2.4287   72.7889    2.4311
  1.520   72.9876    2.2895   72.8798    2.4244   72.8962    2.4227   72.9593    2.2894   73.0947    2.4652   73.0899    2.4676
  1.530   73.2922    2.3242   73.1833    2.4609   73.1997    2.4591   73.2639    2.3241   73.4003    2.5024   73.3956    2.5047
  1.540   73.6015    2.3595   73.4915    2.4980   73.5080    2.4962   73.5732    2.3595   73.7107    2.5403   73.7060    2.5426
  1.550   73.9156    2.3954   73.8044    2.5357   73.8211    2.5340   73.8873    2.3955   74.0259    2.5788   74.0212    2.5812
  1.560   74.2346    2.4320   74.1223    2.5742   74.1390    2.5725   74.2063    2.4323   74.3461    2.6181   74.3413    2.6205
  1.570   74.5586    2.4694   74.4451    2.6135   74.4619    2.6117   74.5303    2.4697   74.6712    2.6582   74.6665    2.6606
  1.580   74.8877    2.5074   74.7729    2.6535   74.7899    2.6517   74.8594    2.5079   75.0015    2.6990   74.9967    2.7014
  1.590   75.2219    2.5462   75.1060    2.6942   75.1230    2.6924   75.1937    2.5468   75.3369    2.7406   75.3322    2.7430
  1.600   75.5615    2.5858   75.4443    2.7358   75.4614    2.7340   75.5333    2.5865   75.6777    2.7831   75.6730    2.7854
  1.610   75.9065    2.6261   75.7880    2.7781   75.8052    2.7763   75.8783    2.6269   76.0239    2.8263   76.0192    2.8287
  1.620   76.2569    2.6672   76.1371    2.8213   76.1544    2.8195   76.2288    2.6682   76.3757    2.8705   76.3710    2.8728
  1.630   76.6130    2.7092   76.4919    2.8654   76.5093    2.8636   76.5850    2.7103   76.7331    2.9155   76.7284    2.9178
  1.640   76.9749    2.7520   76.8524    2.9103   76.8699    2.9085   76.9469    2.7533   77.0963    2.9614   77.0916    2.9637
  1.650   77.3426    2.7957   77.2187    2.9562   77.2363    2.9544   77.3147    2.7972   77.4653    3.0083   77.4606    3.0106
  1.660   77.7163    2.8403   77.5909    3.0030   77.6087    3.0012   77.6884    2.8419   77.8404    3.0561   77.8357    3.0584
  1.670   78.0961    2.8859   77.9693    3.0507   77.9871    3.0490   78.0683    2.8876   78.2216    3.1049   78.2170    3.1072
  1.680   78.4821    2.9323   78.3538    3.0995   78.3718    3.0977   78.4544    2.9343   78.6091    3.1548   78.6044    3.1571
  1.690   78.8745    2.9798   78.7447    3.1493   78.7628    3.1475   78.8469    2.9819   79.0030    3.2057   78.9984    3.2080
  1.700   79.2734    3.0283   79.1421    3.2001   79.1603    3.1983   79.2459    3.0306   79.4034    3.2576   79.3988    3.2599
  1.710   79.6790    3.0778   79.5461    3.2521   79.5644    3.2503   79.6516    3.0804   79.8106    3.3107   79.8059    3.3130
  1.720   80.0914    3.1284   79.9569    3.3051   79.9753    3.3033   80.0641    3.1312   80.2245    3.3650   80.2199    3.3673
  1.730   80.5108    3.1802   80.3746    3.3593   80.3931    3.3575   80.4836    3.1831   80.6455    3.4204   80.6409    3.4227
  1.740   80.9373    3.2330   80.7993    3.4147   80.8180    3.4129   80.9102    3.2362   81.0736    3.4771   81.0690    3.4793
  1.750   81.3710    3.2871   81.2313    3.4713   81.2501    3.4695   81.3440    3.2905   81.5090    3.5350   81.5045    3.5372
  1.760   81.8122    3.3423   81.6707    3.5292   81.6897    3.5274   81.7853    3.3460   81.9519    3.5942   81.9474    3.5964
  1.770   82.2610    3.3989   82.1177    3.5884   82.1368    3.5866   82.2343    3.4028   82.4025    3.6548   82.3980    3.6570
  1.780   82.7176    3.4567   82.5725    3.6489   82.5916    3.6472   82.6910    3.4609   82.8609    3.7167   82.8564    3.7189
  1.790   83.1822    3.5158   83.0351    3.7109   83.0544    3.7091   83.1558    3.5203   83.3273    3.7801   83.3228    3.7823
  1.800   83.6549    3.5764   83.5059    3.7742   83.5254    3.7725   83.6287    3.5811   83.8019    3.8450   83.7974    3.8471
  1.810   84.1360    3.6383   83.9850    3.8391   84.0046    3.8373   84.1100    3.6434   84.2849    3.9113   84.2805    3.9134
  1.820   84.6257    3.7018   84.4726    3.9055   84.4923    3.9037   84.5998    3.7071   84.7765    3.9793   84.7721    3.9814
  1.830   85.1241    3.7667   84.9690    3.9734   84.9888    3.9717   85.0985    3.7724   85.2770    4.0489   85.2726    4.0509
  1.840   85.6315    3.8333   85.4742    4.0430   85.4942    4.0413   85.6061    3.8393   85.7865    4.1201   85.7821    4.1222
  1.850   86.1481    3.9014   85.9887    4.1143   86.0088    4.1125   86.1230    3.9078   86.3052    4.1931   86.3009    4.1951
  1.860   86.6742    3.9713   86.5125    4.1873   86.5328    4.1856   86.6493    3.9780   86.8334    4.2679   86.8291    4.2699
  1.870   87.2100    4.0429   87.0459    4.2621   87.0664    4.2604   87.1853    4.0500   87.3714    4.3446   87.3671    4.3465
  1.880   87.7557    4.1163   87.5892    4.3388   87.6098    4.3371   87.7313    4.1238   87.9193    4.4232   87.9151    4.4251
  1.890   88.3115    4.1915   88.1427    4.4174   88.1634    4.4157   88.2875    4.1995   88.4775    4.5037   88.4733    4.5056
  1.900   88.8779    4.2687   88.7065    4.4981   88.7274    4.4964   88.8541    4.2771   89.0462    4.5864   89.0420    4.5882
  1.910   89.4549    4.3479   89.2810    4.5808   89.3021    4.5791   89.4315    4.3567   89.6256    4.6711   89.6215    4.6729
  1.920   90.0430    4.4292   89.8664    4.6656   89.8876    4.6640   90.0199    4.4385   90.2162    4.7581   90.2121    4.7598
  1.930   90.6423    4.5126   90.4630    4.7527   90.4845    4.7510   90.6196    4.5224   90.8181    4.8474   90.8141    4.8491
  1.940   91.2533    4.5982   91.0712    4.8420   91.0928    4.8404   91.2309    4.6085   91.4316    4.9390   91.4277    4.9407
  1.950   91.8762    4.6861   91.6913    4.9338   91.7130    4.9322   91.8542    4.6970   92.0572    5.0332   92.0533    5.0347
  1.960   92.5113    4.7765   92.3235    5.0280   92.3454    5.0265   92.4898    4.7879   92.6951    5.1298   92.6912    5.1313
  1.970   93.1591    4.8693   92.9682    5.1248   92.9904    5.1233   93.1380    4.8813   93.3456    5.2291   93.3418    5.2306
  1.980   93.8198    4.9647   93.6258    5.2243   93.6481    5.2228   93.7991    4.9773   94.0092    5.3312   94.0055    5.3326
  1.990   94.4938    5.0627   94.2966    5.3265   94.3192    5.3251   94.4736    5.0760   94.6862    5.4361   94.6825    5.4374
  2.000   95.1815    5.1636   94.9811    5.4317   95.0038    5.4302   95.1619    5.1775   95.3769    5.5440   95.3733    5.5453
  2.010   95.8833    5.2673   95.6795    5.5398   95.7024    5.5383   95.8642    5.2819   96.0818    5.6550   96.0783    5.6562
  2.020   96.5996    5.3741   96.3924    5.6510   96.4155    5.6496   96.5811    5.3894   96.8013    5.7692   96.7979    5.7703
  2.030   97.3309    5.4839   97.1201    5.7654   97.1434    5.7641   97.3130    5.5000   97.5359    5.8867   97.5325    5.8877
  2.040   98.0775    5.5970   97.8630    5.8832   97.8866    5.8819   98.0603    5.6139   98.2859    6.0077   98.2826    6.0086
  2.050   98.8400    5.7135   98.6218    6.0045   98.6455    6.0032   98.8234    5.7313   99.0518    6.1323   99.0486    6.1331
  2.060   99.6189    5.8336   99.3967    6.1294   99.4207    6.1282   99.6030    5.8521   99.8342    6.2606   99.8311    6.2614
  2.070  100.4146    5.9573  100.1884    6.2581  100.2125    6.2569  100.3994    5.9767  100.6335    6.3929  100.6305    6.3936
  2.080  101.2276    6.0848  100.9972    6.3908  101.0217    6.3897  101.2132    6.1052  101.4503    6.5292  101.4474    6.5298
  2.090  102.0586    6.2163  101.8239    6.5276  101.8486    6.5265  102.0450    6.2377  102.2851    6.6698  102.2823    6.6703
  2.100  102.9080    6.3519  102.6690    6.6687  102.6939    6.6676  102.8953    6.3744  103.1385    6.8149  103.1358    6.8152
  2.110  103.7765    6.4919  103.5329    6.8142  103.5581    6.8132  103.7647    6.5155  104.0111    6.9646  104.0085    6.9648
  2.120  104.6647    6.6365  104.4165    6.9644  104.4418    6.9635  104.6539    6.6612  104.9035    7.1191  104.9011    7.1192
  2.130  105.5733    6.7857  105.3202    7.1195  105.3458    7.1186  105.5634    6.8116  105.8164    7.2786  105.8141    7.2786
  2.140  106.5029    6.9399  106.2448    7.2797  106.2707    7.2789  106.4941    6.9671  106.7505    7.4434  106.7483    7.4433
  2.150  107.4543    7.0993  107.1910    7.4452  107.2171    7.4445  107.4465    7.1278  107.7064    7.6138  107.7044    7.6135
  2.160  108.4281    7.2641  108.1594    7.6163  108.1859    7.6156  108.4215    7.2939  108.6849    7.7899  108.6830    7.7895
  2.170  109.4252    7.4345  109.1510    7.7932  109.1777    7.7926  109.4199    7.4658  109.6869    7.9720  109.6851    7.9715
  2.180  110.4464    7.6109  110.1664    7.9762  110.1934    7.9757  110.4423    7.6437  110.7130    8.1605  110.7115    8.1598
  2.190  111.4925    7.7934  111.2066    8.1656  111.2339    8.1652  111.4898    7.8278  111.7643    8.3556  111.7629    8.3547
  2.200  112.5644    7.9825  112.2723    8.3617  112.3000    8.3614  112.5631    8.0186  112.8415    8.5576  112.8403    8.5565
  2.210  113.6631    8.1784  113.3646    8.5649  113.3926    8.5646  113.6632    8.2163  113.9456    8.7669  113.9446    8.7657
  2.220  114.7895    8.3815  114.4844    8.7754  114.5127    8.7752  114.7912    8.4212  115.0776    8.9839  115.0769    8.9824
  2.230  115.9447    8.5921  115.6328    8.9936  115.6613    8.9936  115.9480    8.6337  116.2386    9.2089  116.2381    9.2072
  2.240  117.1297    8.8105  116.8107    9.2200  116.8395    9.2200  117.1348    8.8543  117.4296    9.4423  117.4293    9.4404
  2.250  118.3457    9.0374  118.0193    9.4549  118.0485    9.4551  118.3526    9.0833  118.6518    9.6846  118.6518    9.6825
  2.260  119.5939    9.2729  119.2598    9.6988  119.2894    9.6991  119.6027    9.3211  119.9064    9.9362  119.9066    9.9339
  2.270  120.8755    9.5177  120.5334    9.9521  120.5634    9.9526  120.8864    9.5683  121.1946   10.1976  121.1951   10.1951
  2.280  122.1919    9.7721  121.8415   10.2155  121.8718   10.2160  122.2049    9.8253  122.5178   10.4694  122.5186   10.4666
  2.290  123.5445   10.0368  123.1855   10.4893  123.2161   10.4900  123.5597   10.0926  123.8774   10.7521  123.8785   10.7490
  2.300  124.9346   10.3123  124.5667   10.7742  124.5977   10.7750  124.9523   10.3709  125.2748   11.0463  125.2763   11.0429
  2.310  126.3640   10.5992  125.9867   11.0708  126.0181   11.0718  126.3842   10.6608  126.7117   11.3527  126.7135   11.3490
  2.320  127.8342   10.8981  127.4471   11.3797  127.4790   11.3809  127.8570   10.9629  128.1897   11.6719  128.1918   11.6679
  2.330  129.3469   11.2097  128.9497   11.7017  128.9820   11.7031  129.3725   11.2779  129.7104   12.0047  129.7130   12.0004
  2.340  130.9041   11.5349  130.4962   12.0375  130.5289   12.0391  130.9326   11.6065  131.2759   12.3519  131.2788   12.3472
  2.350  132.5075   11.8742  132.0886   12.3879  132.1218   12.3897  132.5392   11.9497  132.8879   12.7143  132.8913   12.7093
  2.360  134.1594   12.2288  133.7288   12.7539  133.7625   12.7559  134.1943   12.3082  134.5487   13.0928  134.5525   13.0874
  2.370  135.8617   12.5994  135.4191   13.1362  135.4532   13.1385  135.9001   12.6830  136.2602   13.4885  136.2646   13.4827
  2.380  137.6169   12.9870  137.1616   13.5361  137.1962   13.5385  137.6590   13.0751  138.0250   13.9024  138.0299   13.8962
  2.390  139.4275   13.3927  138.9589   13.9545  138.9940   13.9572  139.4734   13.4856  139.8454   14.3356  139.8509   14.3290
  2.400  141.2959   13.8178  140.8134   14.3926  140.8490   14.3956  141.3459   13.9157  141.7241   14.7894  141.7302   14.7823
  2.410  143.2250   14.2634  142.7278   14.8517  142.7640   14.8550  143.2793   14.3667  143.6638   15.2651  143.6705   15.2575
  2.420  145.2176   14.7309  144.7052   15.3332  144.7420   15.3368  145.2765   14.8399  145.6675   15.7642  145.6749   15.7561
  2.430  147.2770   15.2217  146.7485   15.8386  146.7858   15.8425  147.3408   15.3369  147.7383   16.2882  147.7464   16.2796
  2.440  149.4065   15.7376  148.8611   16.3695  148.8990   16.3738  149.4754   15.8593  149.8796   16.8389  149.8885   16.8297
  2.450  151.6096   16.2801  151.0464   16.9277  151.0849   16.9323  151.6840   16.4088  152.0950   17.4181  152.1048   17.4083
  2.460  153.8902   16.8513  153.3081   17.5151  153.3473   17.5201  153.9703   16.9874  154.3883   18.0278  154.3990   18.0174
  2.470  156.2522   17.4531  155.6504   18.1338  155.6903   18.1392  156.3385   17.5972  156.7635   18.6703  156.7752   18.6592
  2.480  158.7002   18.0879  158.0775   18.7860  158.1180   18.7920  158.7930   18.2405  159.2252   19.3479  159.2379   19.3361
  2.490  161.2387   18.7581  160.5939   19.4744  160.6352   19.4808  161.3384   18.9198  161.7779   20.0633  161.7917   20.0508
  2.500  163.8727   19.4664  163.2046   20.2016  163.2466   20.2085  163.9798   19.6380  164.4267   20.8194  164.4417   20.8061
  2.510  166.6077   20.2157  165.9149   20.9706  165.9576   20.9781  166.7226   20.3979  167.1770   21.6194  167.1933   21.6052
  2.520  169.4494   21.0094  168.7304   21.7847  168.7739   21.7928  169.5726   21.2029  170.0346   22.4666  170.0522   22.4516
  2.530  172.4041   21.8511  171.6572   22.6477  171.7016   22.6564  172.5361   22.0568  173.0057   23.3651  173.0249   23.3492
  2.540  175.4785   22.7446  174.7020   23.5634  174.7473   23.5727  175.6199   22.9636  176.0971   24.3190  176.1179   24.3021
  2.550  178.6798   23.6944  177.8718   24.5363  177.9180   24.5464  178.8312   23.9276  179.3161   25.3330  179.3386   25.3150
  2.560  182.0159   24.7054  181.1744   25.5713  181.2214   25.5822  182.1779   24.9540  182.6704   26.4122  182.6948   26.3932
  2.570  185.4952   25.7829  184.6179   26.6739  184.6659   26.6856  185.6686   26.0483  186.1686   27.5626  186.1951   27.5424
  2.580  189.1270   26.9329  188.2114   27.8500  188.2605   27.8627  189.3125   27.2165  189.8199   28.7904  189.8486   28.7690
  2.590  192.9211   28.1622  191.9646   29.1066  192.0148   29.1202  193.1196   28.4655  193.6343   30.1028  193.6654   30.0801
  2.600  196.8886   29.4782  195.8882   30.4510  195.9394   30.4657  197.1009   29.8029  197.6225   31.5079  197.6562   31.4839
  2.610  201.0411   30.8893  199.9935   31.8917  200.0459   31.9076  201.2682   31.2374  201.7963   33.0145  201.8328   32.9891
  2.620  205.3915   32.4049  204.2932   33.4382  204.3468   33.4554  205.6343   32.7786  206.1685   34.6328  206.2082   34.6059
  2.630  209.9538   34.0356  208.8009   35.1012  208.8557   35.1197  210.2135   34.4374  210.7532   36.3741  210.7963   36.3456
  2.640  214.7434   35.7934  213.5315   36.8926  213.5876   36.9127  215.0212   36.2260  215.5655   38.2513  215.6124   38.2211
  2.650  219.7770   37.6920  218.5013   38.8262  218.5588   38.8479  220.0741   38.1584  220.6221   40.2788  220.6731   40.2468
  2.660  225.0731   39.7467  223.7282   40.9174  223.7872   40.9408  225.3907   40.2503  225.9412   42.4731  225.9968   42.4393
  2.670  230.6518   41.9751  229.2318   43.1838  229.2923   43.2092  230.9915   42.5199  231.5429   44.8531  231.6036   44.8173
  2.680  236.5353   44.3975  235.0335   45.6455  235.0956   45.6731  236.8986   44.9878  237.4491   47.4404  237.5153   47.4025
  2.690  242.7482   47.0368  241.1571   48.3257  241.2208   48.3556  243.1366   47.6777  243.6839   50.2595  243.7563   50.2196
  2.700  249.3173   49.9198  247.6286   51.2510  247.6940   51.2835  249.7326   50.6170  250.2738   53.3391  250.3530   53.2969
  2.710  256.2723   53.0773  254.4766   54.4520  254.5438   54.4874  256.7162   53.8374  257.2478   56.7120  257.3347   56.6675
  2.720  263.6462   56.5451  261.7328   57.9645  261.8019   58.0030  264.1205   57.3755  264.6382   60.4165  264.7336   60.3697
  2.730  271.4752   60.3649  269.4321   61.8299  269.5031   61.8719  271.9818   61.2743  272.4801   64.4972  272.5851   64.4480
  2.740  279.7995   64.5856  277.6128   66.0969  277.6859   66.1428  280.3401   65.5840  280.8124   69.0062  280.9282   68.9546
  2.750  288.6633   69.2649  286.3176   70.8224  286.3927   70.8727  289.2398   70.3639  289.6779   74.0051  289.8058   73.9512
  2.760  298.1158   74.4708  295.5930   76.0740  295.6703   76.1292  298.7295   75.6840  299.1231   79.5665  299.2648   79.5103
  2.770  308.2108   80.2843  305.4905   81.9316  305.5699   81.9923  308.8630   81.6275  309.1993   85.7766  309.3566   85.7184
  2.780  319.0076   86.8021  316.0663   88.4908  316.1479   88.5577  319.6991   88.2940  319.9620   92.7384  320.1371   92.6785
  2.790  330.5712   94.1404  327.3815   95.8659  327.4652   95.9398  331.3017   95.8031  331.4710  100.5755  331.6665  100.5145
  2.800  342.9718  102.4399  339.5022  104.1951  339.5880  104.2769  343.7398  104.2994  343.7900  109.4372  344.0088  109.3758
  2.810  356.2847  111.8712  352.4985  113.6459  352.5862  113.7367  357.0868  113.9587  356.9852  119.5043  357.2310  119.4437
  2.820  370.5888  122.6433  366.4436  124.4225  366.5330  124.5236  371.4189  124.9958  371.1238  130.9979  371.4007  130.9396
  2.830  385.9645  135.0131  381.4109  136.7758  381.5016  136.8887  386.8123  137.6751  386.2701  144.1889  386.5831  144.1352
  2.840  402.4892  149.2987  397.4698  151.0151  397.5612  151.1416  403.3383  152.3235  402.4794  159.4112  402.8344  159.3655
  2.850  420.2297  165.8958  414.6780  167.5245  414.7693  167.6665  421.0550  169.3476  419.7886  177.0788  420.1925  177.0456
  2.860  439.2297  185.2994  433.0694  186.7824  433.1593  186.9424  439.9929  189.2550  438.1999  197.7060  438.6609  197.6918
  2.870  459.4889  208.1308  452.6332  209.3877  452.7199  209.5683  460.1329  212.6819  457.6558  221.9335  458.1832  221.9475
  2.880  480.9288  235.1717  473.2815  236.0907  473.3625  236.2949  481.3686  240.4264  477.9985  250.5589  478.6031  250.6142
  2.890  503.3377  267.4041  494.7961  267.8303  494.8678  268.0616  503.4476  273.4869  498.9066  284.5701  499.5998  284.6851
  2.900  526.2822  306.0544  516.7445  305.7737  516.8021  306.0357  525.8772  313.1025  519.7956  325.1764  520.5890  325.3773
  2.910  548.9663  352.6304  538.3474  351.3499  538.3841  351.6462  547.7767  360.7829  539.6664  373.8225  540.5692  374.1459
  2.920  570.0138  408.9299  558.2745  406.2544  558.2813  406.5881  567.6520  418.3017  556.8795  432.1554  557.8949  432.6520
  2.930  587.1432  476.9678  574.3417  472.3784  574.3067  472.7513  583.0661  487.5967  568.8399  501.8835  569.9568  502.6212
  2.940  596.7182  558.7199  583.0949  551.5676  583.0030  551.9789  590.2001  570.4696  571.6030  584.4187  572.7835  585.4840
  2.950  593.2181  655.5029  579.3207  645.0453  579.1536  645.4901  583.3704  667.9056  559.5043  680.1395  560.6631  681.6305
  2.960  568.8495  766.7358  555.6859  752.2676  555.4221  752.7347  554.7588  778.7839  525.1043  787.1058  526.0858  789.1093
  2.970  513.8850  887.8957  503.0409  869.0366  502.6568  869.5052  494.9658  897.8747  460.0508  899.2638  460.6140  901.8048
  2.980  418.7976 1008.0278  412.3587  985.1934  411.8317  985.6277  395.3749 1013.6217  357.6335 1004.8288  357.4795 1007.7937
  2.990  279.1864 1108.5670  279.2279 1083.4709  278.5470 1083.8133  253.0372 1107.5238  217.2154 1086.5833  216.0900 1089.6585
  3.000  102.4020 1166.7862  109.9588 1142.5030  109.1474 1142.6784   76.6319 1158.0686   48.6847 1126.1911   46.5390 1128.9011
  3.010  -89.4994 1165.6121  -75.4548 1145.6406  -76.3209 1145.5886 -111.6231 1150.2074 -127.2730 1112.2738 -130.1834 1114.1646
  3.020 -266.6885 1104.3142 -249.1745 1090.8938 -249.9893 1090.6132 -283.2304 1084.7812 -286.0230 1047.2235 -289.2275 1048.0791
  3.030 -405.5420  999.6942 -388.0941  992.7515 -388.7786  992.3068 -416.4412  978.7358 -409.3546  946.4283 -412.3925  946.3345
  3.040 -497.7459  876.0853 -482.7705  873.7009 -483.3106  873.1776 -504.1387  855.3785 -491.3623  830.2263 -493.9510  829.4524
  3.050 -548.6709  754.0583 -536.7981  753.7520 -537.2327  753.2048 -551.7857  734.0006 -536.7127  715.6188 -538.7679  714.4571
  3.060 -570.5568  645.3277 -560.8666  645.1827 -561.2483  644.6082 -570.8178  625.5243 -555.3803  612.6303 -556.9480  611.2995
  3.070 -576.4865  552.2266 -567.2003  551.7847 -567.5370  551.1212 -573.1204  532.6140 -558.1431  524.1326 -559.3122  522.7478
  3.080 -574.1078  469.4406 -564.2183  470.0582 -564.4118  469.2669 -566.2369  451.6617 -552.3775  447.0521 -553.1981  445.6624
  3.090 -561.8786  393.1555 -552.5167  396.0493 -552.4667  395.2422 -550.8074  379.5371 -538.9902  377.9942 -539.4866  376.6772
  3.100 -539.1689  327.2464 -531.7065  331.7662 -531.4709  331.0816 -527.4699  318.1048 -518.0361  318.3362 -518.2903  317.1662
  3.110 -511.0815  274.1046 -505.6899  279.1031 -505.3762  278.5667 -500.2746  268.2767 -492.8922  269.3104 -492.9956  268.2974
  3.120 -482.0518  231.9562 -478.3191  236.7566 -477.9894  236.3378 -472.5597  228.2771 -466.7687  229.6174 -466.7792  228.7409
  3.130 -454.0886  198.1827 -451.5615  202.5125 -451.2407  202.1771 -445.8745  195.8696 -441.3023  197.2845 -441.2525  196.5222
  3.140 -427.8766  170.6985 -426.2022  174.4873 -425.8976  174.2099 -420.7798  169.2691 -417.1518  170.6473 -417.0614  169.9809
  3.150 -403.5678  148.0100 -402.4935  151.2732 -402.2060  151.0363 -397.4181  147.1665 -394.5323  148.4532 -394.4141  147.8683
  3.160 -381.1112  129.0475 -380.4607  131.8325 -380.1883  131.6242 -375.7601  128.6005 -373.4651  129.7698 -373.3279  129.2550
  3.170 -360.3812  113.0271 -360.0308  115.3903 -359.7708  115.2021 -355.7060  112.8524 -353.8860  113.8939 -353.7361  113.4399
  3.180 -341.2272   99.3608 -341.0901  101.3574 -340.8394  101.1833 -337.1285   99.3744 -335.6934  100.2862 -335.5355   99.8854
  3.190 -323.4954   87.5984 -323.5098   89.2789 -323.2655   89.1145 -319.8926   87.7419 -318.7714   88.5268 -318.6089   88.1731
  3.200 -307.0372   77.3892 -307.1591   78.7985 -306.9184   78.6404 -303.8649   77.6212 -303.0009   78.2847 -302.8365   77.9729
  3.210 -291.7127   68.4562 -291.9109   69.6335 -291.6706   69.4789 -288.9177   68.7467 -288.2648   69.2956 -288.1006   69.0216
  3.220 -277.3915   60.5777 -277.6434   61.5571 -277.4006   61.4038 -274.9302   60.9048 -274.4502   61.3462 -274.2884   61.1065
  3.230 -263.9512   53.5739 -264.2411   54.3853 -263.9926   54.2313 -261.7878   53.9213 -261.4489   54.2629 -261.2912   54.0546
  3.240 -251.2756   47.2973 -251.5931   47.9670 -251.3352   47.8105 -249.3811   47.6529 -249.1555   47.9027 -249.0041   47.7231
  3.250 -239.2517   41.6254 -239.5905   42.1772 -239.3188   42.0166 -237.6027   41.9808 -237.4659   42.1469 -237.3232   41.9934
  3.260 -227.7645   36.4561 -228.1224   36.9118 -227.8315   36.7454 -226.3433   36.8055 -226.2730   36.8973 -226.1417   36.7669
  3.270 -216.6906   31.7057 -217.0701   32.0861 -216.7524   31.9121 -215.4858   32.0456 -215.4610   32.0746 -215.3440   31.9632
  3.280 -205.8888   27.3133 -206.2985   27.6374 -205.9430   27.4549 -204.8971   27.6401 -204.8982   27.6216 -204.7979   27.5234
  3.290 -195.1931   23.2535 -195.6496   23.5373 -195.2400   23.3485 -194.4200   23.5602 -194.4301   23.5149 -194.3467   23.4221
  3.300 -184.4156   19.5593 -184.9441   19.8111 -184.4585   19.6262 -183.8743   19.8283 -183.8815   19.7834 -183.8108   19.6882
  3.310 -173.3657   16.3374 -173.9965   16.5547 -173.4124   16.3974 -173.0685   16.5357 -173.0691   16.5247 -173.0025   16.4230
  3.320 -161.8594   13.7680 -162.6272   13.9395 -161.9282   13.8470 -161.8085   13.8498 -161.8074   13.9124 -161.7366   13.8070
  3.330 -149.6994   12.1333 -150.6517   12.2366 -149.8301   12.2583 -149.8824   12.0476 -149.8959   12.2352 -149.8191   12.1335
  3.340 -136.6853   11.9302 -137.8925   11.9105 -136.9524   12.1134 -137.0763   11.6252 -137.1482   12.0126 -137.0728   11.9186
  3.350 -122.7753   14.0454 -124.3187   13.7693 -123.2946   14.2491 -123.3331   13.4703 -123.5815   14.1535 -123.5187   14.0585
  3.360 -108.5405   19.8505 -110.4388   19.0500 -109.4416   19.9223 -109.2061   18.9627 -109.8951   19.9926 -109.8454   19.8687
  3.370  -95.9791   30.7686  -98.0043   29.0600  -97.2756   30.3837  -96.6809   29.5420  -98.2279   30.7221  -98.1525   30.5355
  3.380  -88.9221   46.5190  -90.4181   43.7093  -90.2765   45.3188  -89.5845   44.9385  -92.2423   45.5897  -92.0574   45.3572
  3.390  -90.7140   62.8936  -90.9286   59.4887  -91.4821   60.9472  -91.2320   60.9536  -94.5012   60.2390  -94.1612   60.0735
  3.400  -99.7848   73.7671  -98.6927   70.7465  -99.6500   71.6952 -100.0245   71.5386 -102.8482   69.3703 -102.4356   69.3850
  3.410 -110.4997   76.9391 -108.7741   74.8190 -109.7561   75.2683 -110.4106   74.5849 -112.1647   71.6420 -111.8098   71.8351
  3.420 -118.7322   74.7788 -116.9670   73.4389 -117.8091   73.5800 -118.3932   72.4309 -119.1056   69.3763 -118.8768   69.6724
  3.430 -123.6226   70.4114 -122.0454   69.5496 -122.7471   69.5204 -123.1656   68.0929 -123.0803   65.2639 -122.9846   65.5912
  3.440 -125.9402   65.7408 -124.5619   65.1438 -125.1510   64.9900 -125.4778   63.3547 -124.7847   60.9177 -124.8049   61.2289
  3.450 -126.7234   61.5351 -125.5074   61.1039 -125.9685   60.8335 -126.2351   58.8353 -125.1268   57.0004 -125.2408   57.2637
  3.460 -126.8144   57.9023 -125.7488   57.5804 -126.0283   57.2419 -125.8590   54.7586 -124.8521   53.5941 -125.0327   53.7848
  3.470 -126.7631   54.5776 -125.8244   54.2879 -125.9207   54.0016 -125.1447   51.5136 -124.4118   50.4415 -124.6219   50.5450
  3.480 -126.7223   51.0850 -125.8137   50.7905 -125.8478   50.6333 -124.7093   48.2106 -123.8707   47.1806 -124.0689   47.2036
  3.490 -126.3465   47.0901 -125.4034   46.8755 -125.4819   46.7751 -123.9114   44.4351 -122.9811   43.6496 -123.1404   43.6202
  3.500 -125.1694   42.7949 -124.2586   42.7380 -124.3566   42.6073 -122.3784   40.5354 -121.4984   40.0136 -121.6156   39.9626
  3.510 -123.1264   38.6857 -122.3357   38.7587 -122.3970   38.5972 -120.1675   36.8991 -119.4149   36.5647 -119.5005   36.5107
  3.520 -120.4796   35.0714 -119.8350   35.2053 -119.8461   35.0465 -117.5151   33.7168 -116.9008   33.4932 -116.9663   33.4428
  3.530 -117.5214   32.0148 -117.0060   32.1589 -116.9807   32.0234 -114.6441   31.0092 -114.1510   30.8463 -114.2037   30.8005
  3.540 -114.4522   29.4565 -114.0388   29.5856 -113.9939   29.4776 -111.7034   28.7194 -111.3089   28.5891 -111.3531   28.5472
  3.550 -111.3848   27.3066 -111.0499   27.4113 -110.9965   27.3271 -108.7772   26.7732 -108.4614   26.6608 -108.4992   26.6223
  3.560 -108.3760   25.4820 -108.1021   25.5607 -108.0465   25.4948 -105.9082   25.1034 -105.6553   25.0016 -105.6881   24.9663
  3.570 -105.4513   23.9165 -105.2261   23.9701 -105.1709   23.9178 -103.1157   23.6565 -102.9138   23.5617 -102.9428   23.5294
  3.580 -102.6199   22.5593 -102.4348   22.5899 -102.3809   22.5475 -100.4069   22.3912 -100.2467   22.3017 -100.2728   22.2724
  3.590  -99.8830   21.3722  -99.7315   21.3821  -99.6791   21.3469  -97.7824   21.2760  -97.6568   21.1913  -97.6809   21.1649
  3.600  -97.2377   20.3263  -97.1150   20.3177  -97.0641   20.2879  -95.2399   20.2870  -95.1435   20.2073  -95.1663   20.1834
  3.610  -94.6794   19.3996  -94.5821   19.3747  -94.5323   19.3490  -92.7758   19.4058  -92.7040   19.3315  -92.7260   19.3099
  3.620  -92.2031   18.5753  -92.1282   18.5360  -92.0793   18.5134  -90.3858   18.6181  -90.3351   18.5498  -90.3566   18.5301
  3.630  -89.8034   17.8403  -89.7489   17.7883  -89.7007   17.7680  -88.0656   17.9127  -88.0331   17.8513  -88.0543   17.8332
  3.640  -87.4753   17.1841  -87.4397   17.1212  -87.3919   17.1027  -85.8110   17.2807  -85.7943   17.2270  -85.8154   17.2103
  3.650  -85.2143   16.5987  -85.1963   16.5264  -85.1489   16.5091  -83.6183   16.7149  -83.6153   16.6699  -83.6364   16.6544
  3.660  -83.0160   16.0774  -83.0150   15.9971  -82.9676   15.9808  -81.4838   16.2096  -81.4928   16.1742  -81.5140   16.1598
  3.670  -80.8767   15.6150  -80.8921   15.5280  -80.8446   15.5123  -79.4043   15.7602  -79.4239   15.7356  -79.4452   15.7221
  3.680  -78.7930   15.2073  -78.8245   15.1148  -78.7767   15.0995  -77.3770   15.3629  -77.4060   15.3501  -77.4274   15.3375
  3.690  -76.7619   14.8509  -76.8095   14.7539  -76.7613   14.7387  -75.3995   15.0145  -75.4368   15.0148  -75.4583   15.0030
  3.700  -74.7808   14.5429  -74.8448   14.4425  -74.7960   14.4272  -73.4694   14.7127  -73.5142   14.7273  -73.5359   14.7162
  3.710  -72.8476   14.2812  -72.9282   14.1781  -72.8787   14.1627  -71.5850   14.4552  -71.6366   14.4854  -71.6585   14.4751
  3.720  -70.9604   14.0638  -71.0582   13.9590  -71.0078   13.9431  -69.7449   14.2403  -69.8027   14.2876  -69.8248   14.2779
  3.730  -69.1177   13.8891  -69.2334   13.7832  -69.1820   13.7669  -67.9478   14.0666  -68.0115   14.1324  -68.0338   14.1233
  3.740  -67.3186   13.7558  -67.4530   13.6495  -67.4004   13.6326  -66.1930   13.9325  -66.2622   14.0185  -66.2849   14.0099
  3.750  -65.5622   13.6626  -65.7165   13.5565  -65.6625   13.5388  -64.4799   13.8370  -64.5546   13.9447  -64.5775   13.9366
  3.760  -63.8482   13.6083  -64.0234   13.5028  -63.9678   13.4842  -62.8083   13.7786  -62.8884   13.9098  -62.9117   13.9021
  3.770  -62.1763   13.5916  -62.3738   13.4870  -62.3165   13.4675  -61.1782   13.7560  -61.2640   13.9125  -61.2876   13.9052
  3.780  -60.5467   13.6111  -60.7681   13.5076  -60.7088   13.4871  -59.5898   13.7677  -59.6816   13.9515  -59.7056   13.9445
  3.790  -58.9597   13.6653  -59.2065   13.5630  -59.1451   13.5414  -58.0436   13.8121  -58.1419   14.0249  -58.1661   14.0182
  3.800  -57.4157   13.7522  -57.6897   13.6511  -57.6258   13.6283  -56.5400   13.8869  -56.6453   14.1310  -56.6698   14.1245
  3.810  -55.9150   13.8698  -56.2183   13.7696  -56.1517   13.7457  -55.0795   13.9901  -55.1925   14.2675  -55.2173   14.2611
  3.820  -54.4580   14.0155  -54.7926   13.9158  -54.7230   13.8908  -53.6623   14.1188  -53.7841   14.4317  -53.8091   14.4254
  3.830  -53.0448   14.1866  -53.4130   14.0869  -53.3401   14.0606  -52.2886   14.2700  -52.4202   14.6207  -52.4454   14.6146
  3.840  -51.6753   14.3799  -52.0795   14.2793  -52.0030   14.2520  -50.9580   14.4406  -51.1007   14.8314  -51.1261   14.8253
  3.850  -50.3487   14.5922  -50.7915   14.4896  -50.7110   14.4613  -49.6700   14.6268  -49.8252   15.0602  -49.8507   15.0541
  3.860  -49.0640   14.8197  -49.5480   14.7140  -49.4633   14.6847  -48.4233   14.8249  -48.5924   15.3034  -48.6180   15.2974
  3.870  -47.8193   15.0591  -48.3474   14.9487  -48.2581   14.9186  -47.2159   15.0313  -47.4007   15.5575  -47.4263   15.5515
  3.880  -46.6123   15.3068  -47.1875   15.1898  -47.0931   15.1591  -46.0452   15.2423  -46.2475   15.8190  -46.2731   15.8129
  3.890  -45.4398   15.5598  -46.0651   15.4340  -45.9653   15.4029  -44.9080   15.4544  -45.1299   16.0846  -45.1555   16.0785
  3.900  -44.2980   15.8152  -44.9767   15.6781  -44.8712   15.6468  -43.8004   15.6648  -44.0440   16.3516  -44.0695   16.3455
  3.910  -43.1826   16.0709  -43.9181   15.9195  -43.8064   15.8884  -42.7179   15.8709  -42.9857   16.6178  -43.0110   16.6117
  3.920  -42.0888   16.3256  -42.8846   16.1564  -42.7665   16.1259  -41.6556   16.0712  -41.9500   16.8818  -41.9752   16.8757
  3.930  -41.0115   16.5784  -41.8712   16.3876  -41.7462   16.3579  -40.6080   16.2645  -40.9321   17.1429  -40.9572   17.1369
  3.940  -39.9454   16.8298  -40.8727   16.6126  -40.7406   16.5843  -39.5696   16.4508  -39.9268   17.4013  -39.9516   17.3953
  3.950  -38.8851   17.0807  -39.8837   16.8319  -39.7442   16.8054  -38.5350   16.6305  -38.9288   17.6582  -38.9535   17.6522
  3.960  -37.8255   17.3332  -38.8991   17.0467  -38.7519   17.0224  -37.4984   16.8052  -37.9332   17.9154  -37.9576   17.9093
  3.970  -36.7615   17.5901  -37.9138   17.2588  -37.7587   17.2373  -36.4545   16.9770  -36.9351   18.1755  -36.9594   18.1694
  3.980  -35.6886   17.8551  -36.9230   17.4708  -36.7597   17.4524  -35.3980   17.1487  -35.9302   18.4421  -35.9542   18.4359
  3.990  -34.6026   18.1324  -35.9220   17.6856  -35.7502   17.6711  -34.3240   17.3237  -34.9145   18.7191  -34.9382   18.7127
  4.000  -33.5000   18.4271  -34.9065   17.9071  -34.7260   17.8967  -33.2276   17.5060  -33.8843   19.0111  -33.9078   19.0044
  4.010  -32.3776   18.7446  -33.8723   18.1390  -33.6828   18.1335  -32.1044   17.7002  -32.8367   19.3232  -32.8598   19.3161
  4.020  -31.2332   19.0910  -32.8155   18.3860  -32.6167   18.3858  -30.9501   17.9112  -31.7691   19.6609  -31.7916   19.6533
  4.030  -30.0651   19.4725  -31.7321   18.6529  -31.5237   18.6586  -29.7604   18.1444  -30.6794   20.0299  -30.7012   20.0216
  4.040  -28.8724   19.8957  -30.6182   18.9451  -30.3997   18.9574  -28.5314   18.4059  -29.5659   20.4364  -29.5868   20.4273
  4.050  -27.6550   20.3669  -29.4697   19.2687  -29.2405   19.2882  -27.2589   18.7022  -28.4273   20.8865  -28.4470   20.8765
  4.060  -26.4135   20.8922  -28.2820   19.6305  -28.0417   19.6580  -25.9387   19.0407  -27.2625   21.3866  -27.2807   21.3756
  4.070  -25.1486   21.4767  -27.0506   20.0385  -26.7983   20.0749  -24.5665   19.4293  -26.0702   21.9428  -26.0865   21.9308
  4.080  -23.8607   22.1244  -25.7702   20.5022  -25.5051   20.5485  -23.1380   19.8774  -24.8484   22.5616  -24.8626   22.5487
  4.090  -22.5485   22.8378  -24.4353   21.0331  -24.1563   21.0905  -21.6484   20.3952  -23.5939   23.2497  -23.6058   23.2358
  4.100  -21.2071   23.6186  -23.0402   21.6454  -22.7460   21.7156  -20.0927   20.9949  -22.3012   24.0153  -22.3106   23.9999
  4.110  -19.8257   24.4694  -21.5795   22.3569  -21.2685   22.4420  -18.4656   21.6906  -20.9621   24.8695  -20.9687   24.8518
  4.120  -18.3865   25.3981  -20.0486   23.1897  -19.7192   23.2923  -16.7617   22.4990  -19.5656   25.8289  -19.5680   25.8075
  4.130  -16.8651   26.4233  -18.4453   24.1714  -18.0956   24.2949  -14.9754   23.4400  -18.0989   26.9189  -18.0945   26.8923
  4.140  -15.2356   27.5794  -16.7711   25.3353  -16.3992   25.4845  -13.1014   24.5379  -16.5513   28.1765  -16.5354   28.1443
  4.150  -13.4784   28.9197  -15.0339   26.7215  -14.6382   26.9022  -11.1348   25.8219  -14.9190   29.6525  -14.8855   29.6170
  4.160  -11.5879   30.5137  -13.2505   28.3762  -12.8300   28.5961   -9.0724   27.3281  -13.2111   31.4111  -13.1543   31.3784
  4.170   -9.5780   32.4428  -11.4502   30.3508  -11.0052   30.6195   -6.9134   29.1009  -11.4566   33.5276  -11.3733   33.5073
  4.180   -7.4841   34.7952   -9.6784   32.6995   -9.2110   33.0286   -4.6615   31.1951   -9.7101   36.0840   -9.6018   36.0878
  4.190   -5.3647   37.6646   -7.9998   35.4756   -7.5151   35.8788   -2.3277   33.6784   -8.0575   39.1628   -7.9310   39.2017
  4.200   -3.3060   41.1499   -6.5018   38.7265   -6.0092   39.2190    0.0649   36.6346   -6.6215   42.8394   -6.4884   42.9210
  4.210   -1.4311   45.3544   -5.2960   42.4858   -4.8105   43.0839    2.4743   40.1670   -5.5675   47.1706   -5.4417   47.2977
  4.220    0.0841   50.3790   -4.5183   46.7657   -4.0623   47.4845    4.8282   44.4003   -5.1081   52.1793   -5.0033   52.3488
  4.230    0.9923   56.3044   -4.3261   51.5457   -3.9304   52.3974    7.0071   49.4819   -5.5047   57.8296   -5.4324   58.0344
  4.240    0.9572   63.1552   -4.8915   56.7634   -4.5965   57.7528    8.8200   55.5757   -7.0597   63.9940   -7.0274   64.2240
  4.250   -0.4485   70.8407   -6.3911   62.3057   -6.2457   63.4253    9.9697   62.8441  -10.0876   70.4107  -10.0994   70.6556
  4.260   -3.7080   79.0766   -8.9943   68.0036   -9.0527   69.2273   10.0114   71.4041  -14.8529   76.6445  -14.9108   76.8947
  4.270   -9.2610   87.3118  -12.8522   73.6268  -13.1668   74.9044    8.3173   81.2386  -21.4636   82.0789  -21.5692   82.3248
  4.280  -17.3383   94.7189  -18.0869   78.8721  -18.6958   80.1260    4.0840   92.0461  -29.7389   85.9858  -29.8927   86.2153
  4.290  -27.7822  100.3056  -24.7634   83.3378  -25.6744   84.4662   -3.5414  103.0375  -39.1201   87.7052  -39.3178   87.9029
  4.300  -39.9570  103.1435  -32.8145   86.5014  -33.9887   87.3938  -15.1238  112.7842  -48.7288   86.8901  -48.9577   87.0417
  4.310  -52.8111  102.6233  -41.9106   87.7680  -43.2551   88.3329  -30.4067  119.3524  -57.6067   83.6705  -57.8470   83.7693
  4.320  -65.0656   98.6489  -51.3587   86.6631  -52.7415   86.8605  -47.8993  120.9518  -65.0156   78.6032  -65.2474   78.6537
  4.330  -75.5023   91.7262  -60.2012   83.1162  -61.4882   82.9747  -65.1257  116.8827  -70.6099   72.4397  -70.8198   72.4542
  4.340  -83.2993   82.8621  -67.5530   77.5934  -68.6479   77.1967  -79.6391  108.0142  -74.4097   65.8800  -74.5929   65.8728
  4.350  -88.2398   73.2401  -72.9355   70.9130  -73.7981   70.3645  -90.0423   96.2894  -76.6599   59.4363  -76.8175   59.4190
  4.360  -90.6401   63.8511  -76.3478   63.9006  -76.9856   63.2916  -96.2304   83.7389  -77.6865   53.4148  -77.8227   53.3954
  4.370  -91.0867   55.3075  -78.1005   57.1530  -78.5474   56.5473  -98.9348   71.8074  -77.8045   47.9603  -77.9243   47.9433
  4.380  -90.1895   47.8664  -78.6046   50.9946  -78.9024   50.4290  -99.1432   61.2327  -77.2783   43.1121  -77.3861   43.0997
  4.390  -88.4515   41.5494  -78.2388   45.5436  -78.4263   45.0350  -97.7430   52.2338  -76.3130   38.8502  -76.4124   38.8430
  4.400  -86.2375   36.2574  -77.3003   40.7981  -77.4093   40.3508  -95.4001   44.7427  -75.0605   35.1255  -75.1541   35.1235
  4.410  -83.7920   31.8475  -76.0037   36.6985  -76.0581   36.3100  -92.5663   38.5711  -73.6299   31.8783  -73.7197   31.8811
  4.420  -81.2701   28.1739  -74.4965   33.1654  -74.5140   32.8301  -89.5289   33.5021  -72.0985   29.0482  -72.1858   29.0553
  4.430  -78.7657   25.1051  -72.8776   30.1184  -72.8707   29.8296  -86.4615   29.3332  -70.5197   26.5785  -70.6054   26.5894
  4.440  -76.3331   22.5301  -71.2121   27.4839  -71.1894   27.2349  -83.4639   25.8907  -68.9301   24.4188  -69.0150   24.4330
  4.450  -74.0011   20.3575  -69.5419   25.1979  -69.5095   24.9827  -80.5899   23.0326  -67.3542   22.5249  -67.4388   22.5421
  4.460  -71.7830   18.5136  -67.8939   23.2063  -67.8558   23.0195  -77.8649   20.6448  -65.8080   20.8590  -65.8927   20.8788
  4.470  -69.6827   16.9392  -66.2845   21.4639  -66.2433   21.3008  -75.2977   18.6367  -64.3018   19.3889  -64.3868   19.4110
  4.480  -67.6984   15.5868  -64.7232   19.9328  -64.6808   19.7896  -72.8872   16.9369  -62.8415   18.0870  -62.9270   18.1113
  4.490  -65.8255   14.4184  -63.2154   18.5818  -63.1729   18.4552  -70.6272   15.4886  -61.4302   16.9303  -61.5163   16.9566
  4.500  -64.0576   13.4034  -61.7631   17.3849  -61.7211   17.2721  -68.5086   14.2470  -60.0691   15.8992  -60.1560   15.9273
  4.510  -62.3877   12.5169  -60.3666   16.3204  -60.3256   16.2191  -66.5212   13.1762  -58.7580   14.9771  -58.8458   15.0069
  4.520  -60.8084   11.7390  -59.0250   15.3700  -58.9850   15.2784  -64.6548   12.2476  -57.4958   14.1497  -57.5847   14.1813
  4.530  -59.3129   11.0531  -57.7364   14.5187  -57.6976   14.4350  -62.8991   11.4380  -56.2811   13.4053  -56.3711   13.4385
  4.540  -57.8945   10.4457  -56.4987   13.7535  -56.4609   13.6766  -61.2447   10.7288  -55.1118   12.7336  -55.2030   12.7684
  4.550  -56.5469    9.9058  -55.3094   13.0637  -55.2725   12.9923  -59.6827   10.1046  -53.9858   12.1258  -54.0783   12.1623
  4.560  -55.2644    9.4241  -54.1659   12.4400  -54.1297   12.3732  -58.2051    9.5529  -52.9009   11.5745  -52.9948   11.6126
  4.570  -54.0417    8.9928  -53.0655   11.8745  -53.0299   11.8116  -56.8044    9.0634  -51.8548   11.0733  -51.9502   11.1129
  4.580  -52.8741    8.6055  -52.0059   11.3607  -51.9706   11.3009  -55.4741    8.6276  -50.8454   10.6166  -50.9424   10.6578
  4.590  -51.7572    8.2567  -50.9845   10.8926  -50.9493   10.8354  -54.2082    8.2382  -49.8705   10.1996  -49.9692   10.2424
  4.600  -50.6869    7.9419  -49.9990   10.4653  -49.9637   10.4103  -53.0011    7.8894  -48.9281    9.8181  -49.0286    9.8626
  4.610  -49.6596    7.6571  -49.0471   10.0746  -49.0115   10.0212  -51.8481    7.5761  -48.0162    9.4687  -48.1186    9.5148
  4.620  -48.6721    7.3989  -48.1268    9.7167  -48.0907    9.6646  -50.7446    7.2941  -47.1331    9.1480  -47.2374    9.1958
  4.630  -47.7214    7.1646  -47.2360    9.3883  -47.1993    9.3372  -49.6868    7.0396  -46.2769    8.8533  -46.3832    8.9029
  4.640  -46.8047    6.9515  -46.3731    9.0867  -46.3354    9.0363  -48.6710    6.8097  -45.4460    8.5823  -45.5545    8.6336
  4.650  -45.9196    6.7577  -45.5361    8.8093  -45.4974    8.7594  -47.6939    6.6017  -44.6389    8.3328  -44.7497    8.3859
  4.660  -45.0637    6.5812  -44.7236    8.5540  -44.6837    8.5044  -46.7525    6.4133  -43.8541    8.1029  -43.9674    8.1579
  4.670  -44.2350    6.4204  -43.9340    8.3188  -43.8926    8.2693  -45.8443    6.2426  -43.0903    7.8911  -43.2062    7.9479
  4.680  -43.4316    6.2741  -43.1659    8.1021  -43.1229    8.0526  -44.9667    6.0878  -42.3463    7.6958  -42.4648    7.7545
  4.690  -42.6518    6.1408  -42.4180    7.9024  -42.3732    7.8527  -44.1175    5.9477  -41.6208    7.5158  -41.7421    7.5765
  4.700  -41.8939    6.0197  -41.6890    7.7184  -41.6423    7.6684  -43.2947    5.8207  -40.9127    7.3499  -41.0369    7.4126
  4.710  -41.1564    5.9098  -40.9778    7.5489  -40.9291    7.4985  -42.4964    5.7060  -40.2210    7.1971  -40.3483    7.2619
  4.720  -40.4381    5.8103  -40.2834    7.3929  -40.2324    7.3419  -41.7209    5.6025  -39.5446    7.0565  -39.6752    7.1235
  4.730  -39.7376    5.7204  -39.6047    7.2495  -39.5513    7.1979  -40.9666    5.5093  -38.8828    6.9274  -39.0167    6.9966
  4.740  -39.0538    5.6396  -38.9408    7.1178  -38.8848    7.0655  -40.2321    5.4258  -38.2345    6.8091  -38.3720    6.8805
  4.750  -38.3855    5.5673  -38.2908    6.9972  -38.2320    6.9441  -39.5160    5.3514  -37.5990    6.7008  -37.7403    6.7746
  4.760  -37.7319    5.5030  -37.6539    6.8871  -37.5921    6.8330  -38.8171    5.2854  -36.9755    6.6021  -37.1207    6.6783
  4.770  -37.0919    5.4464  -37.0293    6.7868  -36.9644    6.7318  -38.1342    5.2274  -36.3633    6.5125  -36.5126    6.5912
  4.780  -36.4646    5.3971  -36.4161    6.6958  -36.3479    6.6399  -37.4662    5.1769  -35.7616    6.4316  -35.9153    6.5128
  4.790  -35.8493    5.3548  -35.8139    6.6138  -35.7422    6.5568  -36.8122    5.1338  -35.1699    6.3590  -35.3281    6.4428
  4.800  -35.2451    5.3193  -35.2218    6.5404  -35.1464    6.4823  -36.1713    5.0975  -34.5875    6.2943  -34.7505    6.3809
  4.810  -34.6514    5.2903  -34.6393    6.4753  -34.5600    6.4159  -35.5425    5.0680  -34.0137    6.2373  -34.1818    6.3267
  4.820  -34.0675    5.2676  -34.0657    6.4181  -33.9824    6.3575  -34.9250    5.0449  -33.4481    6.1878  -33.6215    6.2801
  4.830  -33.4927    5.2512  -33.5006    6.3686  -33.4129    6.3067  -34.3180    5.0281  -32.8901    6.1455  -33.0691    6.2408
  4.840  -32.9264    5.2409  -32.9433    6.3266  -32.8511    6.2634  -33.7209    5.0176  -32.3391    6.1103  -32.5240    6.2088
  4.850  -32.3680    5.2367  -32.3934    6.2921  -32.2964    6.2275  -33.1330    5.0131  -31.7948    6.0821  -31.9859    6.1838
  4.860  -31.8171    5.2385  -31.8503    6.2647  -31.7483    6.1987  -32.5536    5.0146  -31.2565    6.0608  -31.4542    6.1659
  4.870  -31.2731    5.2463  -31.3137    6.2446  -31.2063    6.1771  -31.9820    5.0221  -30.7239    6.0464  -30.9286    6.1549
  4.880  -30.7354    5.2600  -30.7830    6.2315  -30.6701    6.1625  -31.4178    5.0356  -30.1966    6.0387  -30.4085    6.1508
  4.890  -30.2038    5.2799  -30.2580    6.2256  -30.1391    6.1549  -30.8603    5.0551  -29.6740    6.0378  -29.8937    6.1536
  4.900  -29.6776    5.3058  -29.7380    6.2267  -29.6130    6.1544  -30.3091    5.0807  -29.1558    6.0437  -29.3838    6.1634
  4.910  -29.1566    5.3380  -29.2229    6.2349  -29.0913    6.1610  -29.7636    5.1124  -28.6416    6.0565  -28.8783    6.1802
  4.920  -28.6403    5.3765  -28.7122    6.2504  -28.5736    6.1747  -29.2234    5.1504  -28.1311    6.0763  -28.3770    6.2042
  4.930  -28.1284    5.4215  -28.2056    6.2731  -28.0597    6.1956  -28.6879    5.1948  -27.6238    6.1032  -27.8795    6.2354
  4.940  -27.6204    5.4731  -27.7027    6.3032  -27.5491    6.2239  -28.1569    5.2458  -27.1194    6.1373  -27.3856    6.2740
  4.950  -27.1161    5.5316  -27.2034    6.3409  -27.0415    6.2597  -27.6298    5.3035  -26.6176    6.1789  -26.8950    6.3202
  4.960  -26.6153    5.5971  -26.7072    6.3863  -26.5366    6.3032  -27.1063    5.3682  -26.1181    6.2280  -26.4073    6.3742
  4.970  -26.1175    5.6700  -26.2139    6.4397  -26.0341    6.3547  -26.5860    5.4401  -25.6205    6.2850  -25.9224    6.4362
  4.980  -25.6226    5.7505  -25.7233    6.5013  -25.5337    6.4142  -26.0686    5.5195  -25.1246    6.3501  -25.4401    6.5066
  4.990  -25.1303    5.8388  -25.2352    6.5714  -25.0351    6.4822  -25.5537    5.6068  -24.6301    6.4237  -24.9601    6.5856
  5.000  -24.6405    5.9354  -24.7494    6.6502  -24.5382    6.5590  -25.0410    5.7022  -24.1367    6.5060  -24.4823    6.6736
  5.010  -24.1529    6.0406  -24.2658    6.7382  -24.0426    6.6447  -24.5303    5.8062  -23.6442    6.5975  -24.0065    6.7710
  5.020  -23.6674    6.1547  -23.7841    6.8356  -23.5483    6.7399  -24.0212    5.9191  -23.1523    6.6985  -23.5327    6.8781
  5.030  -23.1841    6.2782  -23.3045    6.9428  -23.0549    6.8449  -23.5136    6.0414  -22.6609    6.8094  -23.0609    6.9954
  5.040  -22.7026    6.4114  -22.8266    7.0602  -22.5625    6.9601  -23.0072    6.1736  -22.1697    6.9308  -22.5909    7.1234
  5.050  -22.2232    6.5549  -22.3507    7.1883  -22.0708    7.0859  -22.5019    6.3161  -21.6786    7.0632  -22.1228    7.2625
  5.060  -21.7457    6.7089  -21.8767    7.3275  -21.5797    7.2227  -21.9975    6.4695  -21.1876    7.2070  -21.6567    7.4134
  5.070  -21.2704    6.8740  -21.4047    7.4782  -21.0893    7.3712  -21.4938    6.6343  -20.6964    7.3629  -21.1928    7.5764
  5.080  -20.7972    7.0506  -20.9349    7.6408  -20.5995    7.5316  -20.9909    6.8112  -20.2049    7.5315  -20.7312    7.7523
  5.090  -20.3264    7.2390  -20.4674    7.8158  -20.1102    7.7045  -20.4885    7.0006  -19.7132    7.7134  -20.2722    7.9415
  5.100  -19.8581    7.4397  -20.0025    8.0036  -19.6215    7.8904  -19.9867    7.2033  -19.2212    7.9092  -19.8163    8.1446
  5.110  -19.3926    7.6529  -19.5404    8.2045  -19.1333    8.0896  -19.4855    7.4198  -18.7288    8.1197  -19.3638    8.3622
  5.120  -18.9301    7.8789  -19.0815    8.4188  -18.6457    8.3027  -18.9848    7.6509  -18.2361    8.3456  -18.9153    8.5947
  5.130  -18.4709    8.1179  -18.6261    8.6468  -18.1586    8.5300  -18.4846    7.8970  -17.7429    8.5875  -18.4713    8.8426
  5.140  -18.0151    8.3698  -18.1745    8.8885  -17.6718    8.7719  -17.9847    8.1590  -17.2492    8.8463  -18.0326    9.1062
  5.150  -17.5627    8.6347  -17.7269    9.1439  -17.1852    9.0287  -17.4852    8.4374  -16.7549    9.1228  -17.5998    9.3858
  5.160  -17.1138    8.9122  -17.2835    9.4130  -16.6983    9.3009  -16.9856    8.7331  -16.2598    9.4179  -17.1738    9.6815
  5.170  -16.6679    9.2022  -16.8441    9.6956  -16.2105    9.5889  -16.4857    9.0468  -15.7635    9.7326  -16.7552    9.9931
  5.180  -16.2242    9.5043  -16.4085    9.9912  -15.7207    9.8932  -15.9848    9.3795  -15.2655   10.0681  -16.3447   10.3206
  5.190  -15.7815    9.8182  -15.9759   10.2997  -15.2276   10.2147  -15.4821    9.7323  -14.7651   10.4260  -15.9428   10.6632
  5.200  -15.3379   10.1438  -15.5451   10.6206  -14.7296   10.5546  -14.9764   10.1071  -14.2615   10.8083  -15.5497   11.0205
  5.210  -14.8907   10.4813  -15.1142   10.9542  -14.2243   10.9151  -14.4664   10.5059  -13.7537   11.2174  -15.1652   11.3915
  5.220  -14.4362   10.8321  -14.6805   11.3010  -13.7095   11.2990  -13.9505   10.9319  -13.2406   11.6571  -14.7886   11.7752
  5.230  -13.9701   11.1986  -14.2409   11.6625  -13.1824   11.7106  -13.4271   11.3895  -12.7215   12.1318  -14.4183   12.1710
  5.240  -13.4872   11.5857  -13.7914   12.0418  -12.6409   12.1560  -12.8949   11.8848  -12.1962   12.6477  -14.0520   12.5782
  5.250  -12.9827   12.0009  -13.3278   12.4440  -12.0836   12.6429  -12.3539   12.4255  -11.6661   13.2123  -13.6860   12.9976
  5.260  -12.4531   12.4554  -12.8470   12.8765  -11.5113   13.1814  -11.8062   13.0216  -11.1344   13.8344  -13.3161   13.4309
  5.270  -11.8986   12.9637  -12.3474   13.3500  -10.9272   13.7825  -11.2574   13.6843  -10.6080   14.5235  -12.9374   13.8825
  5.280  -11.3247   13.5425  -11.8312   13.8768  -10.3387   14.4579  -10.7178   14.4246  -10.0972   15.2882  -12.5454   14.3593
  5.290  -10.7443   14.2074  -11.3054   14.4699   -9.7570   15.2181  -10.2028   15.2510   -9.6162   16.1346  -12.1376   14.8711
  5.300  -10.1768   14.9698  -10.7823   15.1403   -9.1971   16.0705   -9.7315   16.1669   -9.1819   17.0641  -11.7143   15.4304
  5.310   -9.6448   15.8328  -10.2774   15.8940   -8.6759   17.0184   -9.3238   17.1681   -8.8109   18.0728  -11.2801   16.0505
  5.320   -9.1700   16.7915   -9.8068   16.7318   -8.2100   18.0605   -8.9964   18.2444   -8.5173   19.1517  -10.8445   16.7443
  5.330   -8.7687   17.8353   -9.3845   17.6501   -7.8145   19.1920   -8.7599   19.3818   -8.3106   20.2899  -10.4205   17.5223
  5.340   -8.4512   18.9518   -9.0206   18.6436   -7.5015   20.4067   -8.6190   20.5674   -8.1957   21.4766  -10.0244   18.3919
  5.350   -8.2228   20.1310   -8.7230   19.7080   -7.2813   21.6985   -8.5747   21.7913   -8.1751   22.7041   -9.6740   19.3567
  5.360   -8.0872   21.3661   -8.4982   20.8405   -7.1634   23.0624   -8.6275   23.0481   -8.2510   23.9675   -9.3875   20.4169
  5.370   -8.0489   22.6534   -8.3545   22.0405   -7.1585   24.4944   -8.7800   24.3353   -8.4278   25.2644   -9.1834   21.5701
  5.380   -8.1150   23.9910   -8.3024   23.3076   -7.2796   25.9905   -9.0385   25.6514   -8.7130   26.5931   -9.0806   22.8110
  5.390   -8.2962   25.3768   -8.3555   24.6407   -7.5426   27.5452   -9.4128   26.9935   -9.1174   27.9501   -9.0978   24.1317
  5.400   -8.6066   26.8063   -8.5304   26.0362   -7.9665   29.1494   -9.9155   28.3561   -9.6549   29.3291   -9.2543   25.5212
  5.410   -9.0630   28.2713   -8.8461   27.4864   -8.5721   30.7891  -10.5612   29.7291  -10.3411   30.7191   -9.5693   26.9649
  5.420   -9.6834   29.7585   -9.3232   28.9787   -9.3811   32.4436  -11.3650   31.0973  -11.1916   32.1035  -10.0616   28.4436
  5.430  -10.4861   31.2483   -9.9822   30.4944  -10.4136   34.0845  -12.3403   32.4398  -12.2207   33.4599  -10.7482   29.9331
  5.440  -11.4869   32.7144  -10.8420   32.0080  -11.6854   35.6750  -13.4973   33.7297  -13.4390   34.7597  -11.6434   31.4033
  5.450  -12.6970   34.1238  -11.9175   33.4871  -13.2053   37.1711  -14.8412   34.9354  -14.8512   35.9689  -12.7561   32.8188
  5.460  -14.1211   35.4378  -13.2175   34.8925  -14.9717   38.5223  -16.3696   36.0209  -16.4543   37.0494  -14.0883   34.1393
  5.470  -15.7542   36.6135  -14.7416   36.1802  -16.9698   39.6751  -18.0711   36.9488  -18.2354   37.9615  -15.6327   35.3213
  5.480  -17.5803   37.6070  -16.4784   37.3032  -19.1698   40.5770  -19.9246   37.6821  -20.1714   38.6663  -17.3709   36.3210
  5.490  -19.5714   38.3763  -18.4040   38.2155  -21.5269   41.1819  -21.8990   38.1883  -22.2280   39.1296  -19.2730   37.0971
  5.500  -21.6881   38.8859  -20.4815   38.8759  -23.9828   41.4550  -23.9540   38.4418  -24.3616   39.3253  -21.2976   37.6155
  5.510  -23.8810   39.1102  -22.6630   39.2526  -26.4700   41.3773  -26.0432   38.4272  -26.5219   39.2383  -23.3944   37.8527
  5.520  -26.0949   39.0366  -24.8921   39.3263  -28.9170   40.9487  -28.1166   38.1408  -28.6550   38.8665  -25.5077   37.7984
  5.530  -28.2728   38.6668  -27.1088   39.0933  -31.2555   40.1881  -30.1248   37.5916  -30.7085   38.2217  -27.5809   37.4571
  5.540  -30.3602   38.0171  -29.2545   38.5652  -33.4255   39.1310  -32.0229   36.8001  -32.6347   37.3278  -29.5613   36.8476
  5.550  -32.3100   37.1159  -31.2768   37.7678  -35.3804   37.8257  -33.7731   35.7960  -34.3951   36.2192  -31.4041   36.0003
  5.560  -34.0849   36.0009  -33.1333   36.7380  -37.0892   36.3275  -35.3473   34.6157  -35.9614   34.9365  -33.0754   34.9540
  5.570  -35.6595   34.7153  -34.7936   35.5195  -38.5368   34.6937  -36.7275   33.2988  -37.3173   33.5233  -34.5532   33.7516
  5.580  -37.0199   33.3036  -36.2402   34.1587  -39.7224   32.9787  -37.9058   31.8850  -38.4570   32.0227  -35.8270   32.4368
  5.590  -38.1630   31.8087  -37.4673   32.7009  -40.6565   31.2310  -38.8827   30.4117  -39.3843   30.4744  -36.8967   31.0504
  5.600  -39.0944   30.2695  -38.4789   31.1875  -41.3581   29.4908  -39.6660   28.9122  -40.1102   28.9129  -37.7701   29.6285
  5.610  -39.8262   28.7193  -39.2864   29.6541  -41.8514   27.7897  -40.2684   27.4145  -40.6509   27.3668  -38.4608   28.2012
  5.620  -40.3750   27.1853  -39.9064   28.1298  -42.1626   26.1511  -40.7059   25.9416  -41.0253   25.8585  -38.9858   26.7923
  5.630  -40.7598   25.6886  -40.3582   26.6373  -42.3186   24.5904  -40.9962   24.5107  -41.2537   24.4043  -39.3640   25.4197
  5.640  -41.0004   24.2447  -40.6619   25.1929  -42.3447   23.1172  -41.1576   23.1348  -41.3563   23.0155  -39.6140   24.0959
  5.650  -41.1163   22.8644  -40.8376   23.8079  -42.2641   21.7357  -41.2078   21.8223  -41.3522   21.6990  -39.7540   22.8292
  5.660  -41.1261   21.5542  -40.9039   22.4893  -42.0975   20.4464  -41.1633   20.5785  -41.2591   20.4581  -39.8005   21.6240
  5.670  -41.0466   20.3176  -40.8780   21.2407  -41.8623   19.2471  -41.0395   19.4058  -41.0927   19.2937  -39.7680   20.4823
  5.680  -40.8929   19.1555  -40.7749   20.0632  -41.5734   18.1338  -40.8500   18.3046  -40.8665   18.2045  -39.6696   19.4042
  5.690  -40.6785   18.0672  -40.6077   18.9564  -41.2430   17.1017  -40.6067   17.2739  -40.5925   17.1881  -39.5162   18.3885
  5.700  -40.4148   17.0505  -40.3880   17.9183  -40.8810   16.1451  -40.3202   16.3113  -40.2804   16.2410  -39.3172   17.4331
  5.710  -40.1118   16.1023  -40.1252   16.9463  -40.4956   15.2585  -39.9992   15.4139  -39.9388   15.3595  -39.0805   16.5356
  5.720  -39.7779   15.2193  -39.8278   16.0374  -40.0929   14.4364  -39.6515   14.5782  -39.5745   14.5394  -38.8131   15.6931
  5.730  -39.4200   14.3976  -39.5027   15.1883  -39.6783   13.6736  -39.2835   13.8006  -39.1934   13.7765  -38.5206   14.9029
  5.740  -39.0441   13.6333  -39.1559   14.3954  -39.2558   12.9653  -38.9003   13.0772  -38.8001   13.0669  -38.2080   14.1620
  5.750  -38.6552   12.9225  -38.7923   13.6554  -38.8287   12.3070  -38.5066   12.4043  -38.3986   12.4067  -37.8794   13.4675
  5.760  -38.2573   12.2613  -38.4162   12.9648  -38.3996   11.6946  -38.1059   11.7782  -37.9921   11.7920  -37.5384   12.8167
  5.770  -37.8538   11.6460  -38.0313   12.3204  -37.9705   11.1245  -37.7013   11.1955  -37.5831   11.2195  -37.1882   12.2070
  5.780  -37.4474   11.0734  -37.6405   11.7190  -37.5433   10.5933  -37.2951   10.6529  -37.1738   10.6859  -36.8314   11.6356
  5.790  -37.0404   10.5399  -37.2462   11.1576  -37.1193   10.0978  -36.8895   10.1473  -36.7659   10.1882  -36.4702   11.1002
  5.800  -36.6346   10.0427  -36.8508   10.6333  -36.6996    9.6353  -36.4859    9.6757  -36.3608    9.7236  -36.1065   10.5983
  5.810  -36.2314    9.5789  -36.4557   10.1434  -36.2850    9.2032  -36.0857    9.2356  -35.9596    9.2896  -35.7421   10.1278
  5.820  -35.8320    9.1459  -36.0626    9.6855  -35.8762    8.7991  -35.6898    8.8244  -35.5631    8.8837  -35.3781    9.6865
  5.830  -35.4373    8.7412  -35.6725    9.2571  -35.4738    8.4209  -35.2991    8.4399  -35.1722    8.5039  -35.0159    9.2723
  5.840  -35.0480    8.3628  -35.2864    8.8561  -35.0782    8.0666  -34.9141    8.0800  -34.7872    8.1481  -34.6562    8.8835
  5.850  -34.6647    8.0084  -34.9050    8.4804  -34.6896    7.7344  -34.5354    7.7428  -34.4085    7.8144  -34.2999    8.5182
  5.860  -34.2878    7.6763  -34.5290    8.1282  -34.3083    7.4226  -34.1631    7.4266  -34.0366    7.5012  -33.9477    8.1748
  5.870  -33.9175    7.3648  -34.1587    7.7977  -33.9344    7.1297  -33.7977    7.1297  -33.6714    7.2070  -33.5999    7.8517
  5.880  -33.5541    7.0723  -33.7946    7.4873  -33.5679    6.8543  -33.4391    6.8507  -33.3133    6.9303  -33.2571    7.5476
  5.890  -33.1977    6.7973  -33.4368    7.1955  -33.2089    6.5951  -33.0875    6.5882  -32.9622    6.6699  -32.9195    7.2610
  5.900  -32.8484    6.5385  -33.0856    6.9209  -32.8574    6.3509  -32.7429    6.3411  -32.6181    6.4245  -32.5873    6.9908
  5.910  -32.5060    6.2949  -32.7410    6.6624  -32.5133    6.1207  -32.4052    6.1081  -32.2811    6.1931  -32.2606    6.7359
  5.920  -32.1707    6.0651  -32.4030    6.4186  -32.1765    5.9034  -32.0745    5.8883  -31.9510    5.9746  -31.9397    6.4951
  5.930  -31.8424    5.8483  -32.0717    6.1887  -31.8469    5.6981  -31.7507    5.6808  -31.6278    5.7682  -31.6246    6.2675
  5.940  -31.5209    5.6435  -31.7471    5.9715  -31.5243    5.5041  -31.4336    5.4845  -31.3113    5.5730  -31.3152    6.0523
  5.950  -31.2061    5.4499  -31.4291    5.7663  -31.2087    5.3205  -31.1231    5.2989  -31.0015    5.3882  -31.0116    5.8484
  5.960  -30.8980    5.2666  -31.1175    5.5721  -30.8998    5.1465  -30.8191    5.1230  -30.6981    5.2131  -30.7137    5.6553
  5.970  -30.5963    5.0930  -30.8124    5.3882  -30.5975    4.9816  -30.5214    4.9563  -30.4011    5.0471  -30.4215    5.4722
  5.980  -30.3010    4.9284  -30.5135    5.2140  -30.3017    4.8252  -30.2300    4.7982  -30.1104    4.8895  -30.1349    5.2984
  5.990  -30.0119    4.7723  -30.2208    5.0487  -30.0122    4.6766  -29.9445    4.6481  -29.8256    4.7398  -29.8538    5.1333
  6.000  -29.7287    4.6240  -29.9340    4.8918  -29.7287    4.5354  -29.6650    4.5054  -29.5468    4.5974  -29.5782    4.9764
  6.010  -29.4515    4.4830  -29.6532    4.7426  -29.4512    4.4011  -29.3912    4.3696  -29.2737    4.4620  -29.3078    4.8271
  6.020  -29.1799    4.3489  -29.3781    4.6008  -29.1794    4.2733  -29.1229    4.2404  -29.0061    4.3330  -29.0427    4.6849
  6.030  -28.9139    4.2212  -29.1085    4.4659  -28.9133    4.1515  -28.8601    4.1173  -28.7440    4.2101  -28.7827    4.5495
  6.040  -28.6533    4.0995  -28.8444    4.3373  -28.6526    4.0353  -28.6026    4.0000  -28.4872    4.0929  -28.5276    4.4204
  6.050  -28.3979    3.9835  -28.5855    4.2148  -28.3971    3.9245  -28.3501    3.8880  -28.2355    3.9810  -28.2774    4.2972
  6.060  -28.1476    3.8728  -28.3318    4.0979  -28.1468    3.8187  -28.1026    3.7811  -27.9887    3.8741  -28.0319    4.1795
  6.070  -27.9022    3.7671  -28.0831    3.9863  -27.9014    3.7176  -27.8599    3.6790  -27.7467    3.7720  -27.7910    4.0671
  6.080  -27.6616    3.6661  -27.8393    3.8797  -27.6609    3.6209  -27.6219    3.5813  -27.5094    3.6743  -27.5546    3.9596
  6.090  -27.4257    3.5694  -27.6001    3.7778  -27.4250    3.5284  -27.3885    3.4878  -27.2767    3.5807  -27.3226    3.8568
  6.100  -27.1942    3.4770  -27.3655    3.6803  -27.1936    3.4398  -27.1594    3.3983  -27.0484    3.4912  -27.0949    3.7583
  6.110  -26.9672    3.3884  -27.1354    3.5869  -26.9667    3.3550  -26.9346    3.3126  -26.8243    3.4053  -26.8713    3.6640
  6.120  -26.7443    3.3035  -26.9096    3.4975  -26.7439    3.2736  -26.7139    3.2304  -26.6044    3.3229  -26.6517    3.5735
  6.130  -26.5256    3.2222  -26.6879    3.4117  -26.5254    3.1955  -26.4973    3.1516  -26.3885    3.2439  -26.4360    3.4867
  6.140  -26.3109    3.1441  -26.4704    3.3295  -26.3108    3.1205  -26.2846    3.0759  -26.1765    3.1680  -26.2242    3.4035
  6.150  -26.1000    3.0692  -26.2567    3.2506  -26.1001    3.0485  -26.0757    3.0032  -25.9683    3.0951  -26.0161    3.3235
  6.160  -25.8929    2.9972  -26.0469    3.1747  -25.8931    2.9793  -25.8704    2.9333  -25.7637    3.0250  -25.8116    3.2466
  6.170  -25.6895    2.9280  -25.8409    3.1019  -25.6898    2.9128  -25.6687    2.8661  -25.5628    2.9576  -25.6105    3.1727
  6.180  -25.4896    2.8614  -25.6384    3.0318  -25.4901    2.8487  -25.4705    2.8015  -25.3653    2.8927  -25.4129    3.1015
  6.190  -25.2932    2.7974  -25.4394    2.9644  -25.2938    2.7870  -25.2757    2.7393  -25.1712    2.8301  -25.2187    3.0331
  6.200  -25.1001    2.7357  -25.2439    2.8995  -25.1009    2.7276  -25.0841    2.6794  -24.9803    2.7699  -25.0276    2.9671
  6.210  -24.9102    2.6763  -25.0516    2.8370  -24.9112    2.6704  -24.8957    2.6216  -24.7926    2.7119  -24.8397    2.9036
  6.220  -24.7235    2.6191  -24.8626    2.7768  -24.7247    2.6151  -24.7104    2.5659  -24.6081    2.6559  -24.6548    2.8423
  6.230  -24.5399    2.5639  -24.6767    2.7187  -24.5412    2.5619  -24.5281    2.5122  -24.4265    2.6018  -24.4730    2.7832
  6.240  -24.3592    2.5106  -24.4939    2.6627  -24.3607    2.5104  -24.3488    2.4604  -24.2478    2.5496  -24.2940    2.7262
  6.250  -24.1815    2.4592  -24.3140    2.6087  -24.1831    2.4608  -24.1723    2.4104  -24.0720    2.4992  -24.1178    2.6711
  6.260  -24.0065    2.4096  -24.1370    2.5565  -24.0084    2.4128  -23.9985    2.3620  -23.8990    2.4505  -23.9444    2.6179
  6.270  -23.8343    2.3616  -23.9627    2.5060  -23.8364    2.3664  -23.8274    2.3153  -23.7286    2.4034  -23.7736    2.5665
  6.280  -23.6648    2.3152  -23.7912    2.4573  -23.6670    2.3215  -23.6590    2.2701  -23.5609    2.3579  -23.6055    2.5168
  6.290  -23.4979    2.2704  -23.6224    2.4102  -23.5003    2.2781  -23.4931    2.2264  -23.3957    2.3138  -23.4399    2.4688
  6.300  -23.3335    2.2270  -23.4561    2.3646  -23.3360    2.2361  -23.3297    2.1841  -23.2329    2.2711  -23.2767    2.4222
  6.310  -23.1715    2.1851  -23.2923    2.3204  -23.1743    2.1954  -23.1687    2.1432  -23.0726    2.2298  -23.1160    2.3772
  6.320  -23.0120    2.1444  -23.1310    2.2777  -23.0149    2.1560  -23.0101    2.1036  -22.9147    2.1898  -22.9576    2.3336
  6.330  -22.8548    2.1051  -22.9721    2.2363  -22.8578    2.1178  -22.8538    2.0652  -22.7590    2.1510  -22.8015    2.2913
  6.340  -22.6998    2.0669  -22.8155    2.1962  -22.7031    2.0807  -22.6997    2.0279  -22.6056    2.1133  -22.6477    2.2503
  6.350  -22.5471    2.0300  -22.6611    2.1574  -22.5505    2.0448  -22.5478    1.9918  -22.4544    2.0768  -22.4960    2.2106
  6.360  -22.3966    1.9941  -22.5090    2.1197  -22.4001    2.0099  -22.3980    1.9568  -22.3053    2.0414  -22.3464    2.1721
  6.370  -22.2482    1.9593  -22.3590    2.0831  -22.2518    1.9761  -22.2503    1.9228  -22.1582    2.0070  -22.1989    2.1347
  6.380  -22.1018    1.9256  -22.2111    2.0476  -22.1056    1.9432  -22.1047    1.8899  -22.0132    1.9736  -22.0534    2.0984
  6.390  -21.9574    1.8928  -22.0652    2.0131  -21.9614    1.9113  -21.9610    1.8578  -21.8701    1.9412  -21.9099    2.0631
  6.400  -21.8150    1.8610  -21.9213    1.9797  -21.8191    1.8803  -21.8192    1.8267  -21.7290    1.9096  -21.7683    2.0289
  6.410  -21.6745    1.8300  -21.7794    1.9472  -21.6788    1.8502  -21.6793    1.7965  -21.5898    1.8790  -21.6286    1.9956
  6.420  -21.5359    1.8000  -21.6394    1.9156  -21.5403    1.8209  -21.5413    1.7671  -21.4524    1.8492  -21.4908    1.9633
  6.430  -21.3991    1.7708  -21.5013    1.8848  -21.4036    1.7923  -21.4051    1.7385  -21.3168    1.8202  -21.3547    1.9318
  6.440  -21.2640    1.7424  -21.3649    1.8550  -21.2687    1.7646  -21.2706    1.7108  -21.1829    1.7920  -21.2204    1.9012
  6.450  -21.1307    1.7147  -21.2304    1.8259  -21.1356    1.7376  -21.1378    1.6837  -21.0508    1.7645  -21.0878    1.8715
  6.460  -20.9992    1.6879  -21.0975    1.7976  -21.0041    1.7113  -21.0067    1.6574  -20.9203    1.7378  -20.9569    1.8425
  6.470  -20.8692    1.6617  -20.9664    1.7701  -20.8743    1.6857  -20.8773    1.6318  -20.7915    1.7117  -20.8277    1.8143
  6.480  -20.7409    1.6362  -20.8369    1.7433  -20.7461    1.6608  -20.7495    1.6069  -20.6642    1.6864  -20.7000    1.7868
  6.490  -20.6142    1.6114  -20.7090    1.7172  -20.6195    1.6364  -20.6232    1.5826  -20.5386    1.6617  -20.5739    1.7600
  6.500  -20.4891    1.5872  -20.5827    1.6917  -20.4945    1.6128  -20.4985    1.5589  -20.4144    1.6376  -20.4493    1.7340
  6.510  -20.3654    1.5636  -20.4580    1.6669  -20.3710    1.5897  -20.3753    1.5358  -20.2918    1.6141  -20.3263    1.7086
  6.520  -20.2433    1.5407  -20.3348    1.6428  -20.2489    1.5671  -20.2535    1.5133  -20.1706    1.5911  -20.2047    1.6838
  6.530  -20.1226    1.5183  -20.2130    1.6192  -20.1284    1.5451  -20.1332    1.4914  -20.0509    1.5688  -20.0845    1.6596
  6.540  -20.0034    1.4964  -20.0927    1.5962  -20.0092    1.5237  -20.0143    1.4700  -19.9325    1.5470  -19.9658    1.6360
  6.550  -19.8855    1.4751  -19.9738    1.5738  -19.8914    1.5028  -19.8968    1.4491  -19.8156    1.5257  -19.8485    1.6130
  6.560  -19.7690    1.4544  -19.8564    1.5519  -19.7750    1.4823  -19.7806    1.4287  -19.7000    1.5049  -19.7325    1.5906
  6.570  -19.6538    1.4341  -19.7402    1.5305  -19.6600    1.4624  -19.6658    1.4088  -19.5857    1.4846  -19.6178    1.5687
  6.580  -19.5400    1.4143  -19.6254    1.5096  -19.5462    1.4429  -19.5522    1.3894  -19.4727    1.4647  -19.5044    1.5473
  6.590  -19.4274    1.3949  -19.5119    1.4893  -19.4338    1.4238  -19.4400    1.3704  -19.3610    1.4453  -19.3923    1.5264
  6.600  -19.3161    1.3760  -19.3997    1.4694  -19.3226    1.4052  -19.3289    1.3519  -19.2505    1.4264  -19.2814    1.5059
  6.610  -19.2061    1.3576  -19.2888    1.4499  -19.2126    1.3870  -19.2191    1.3338  -19.1412    1.4079  -19.1718    1.4860
  6.620  -19.0972    1.3395  -19.1791    1.4309  -19.1038    1.3692  -19.1105    1.3161  -19.0332    1.3898  -19.0634    1.4665
  6.630  -18.9896    1.3219  -19.0706    1.4123  -18.9962    1.3518  -19.0031    1.2988  -18.9263    1.3721  -18.9561    1.4474
  6.640  -18.8831    1.3047  -18.9632    1.3942  -18.8898    1.3348  -18.8969    1.2819  -18.8205    1.3548  -18.8500    1.4288
  6.650  -18.7777    1.2878  -18.8571    1.3764  -18.7845    1.3181  -18.7917    1.2654  -18.7159    1.3378  -18.7451    1.4105
  6.660  -18.6735    1.2713  -18.7520    1.3590  -18.6804    1.3018  -18.6877    1.2492  -18.6124    1.3213  -18.6412    1.3927
  6.670  -18.5703    1.2552  -18.6481    1.3420  -18.5773    1.2859  -18.5848    1.2334  -18.5100    1.3050  -18.5385    1.3752
  6.680  -18.4683    1.2394  -18.5453    1.3254  -18.4753    1.2703  -18.4829    1.2179  -18.4086    1.2891  -18.4368    1.3581
  6.690  -18.3673    1.2240  -18.4436    1.3091  -18.3744    1.2550  -18.3821    1.2027  -18.3083    1.2736  -18.3361    1.3414
  6.700  -18.2673    1.2089  -18.3429    1.2931  -18.2745    1.2400  -18.2823    1.1879  -18.2090    1.2584  -18.2365    1.3250
  6.710  -18.1684    1.1941  -18.2432    1.2775  -18.1756    1.2253  -18.1835    1.1734  -18.1107    1.2434  -18.1379    1.3090
  6.720  -18.0705    1.1796  -18.1446    1.2622  -18.0778    1.2110  -18.0858    1.1591  -18.0134    1.2288  -18.0403    1.2933
  6.730  -17.9735    1.1654  -18.0470    1.2472  -17.9809    1.1969  -17.9890    1.1452  -17.9171    1.2145  -17.9437    1.2779
  6.740  -17.8775    1.1515  -17.9503    1.2326  -17.8850    1.1831  -17.8932    1.1315  -17.8218    1.2005  -17.8480    1.2629
  6.750  -17.7825    1.1379  -17.8546    1.2182  -17.7900    1.1696  -17.7983    1.1182  -17.7274    1.1867  -17.7533    1.2481
  6.760  -17.6884    1.1245  -17.7599    1.2041  -17.6959    1.1563  -17.7043    1.1051  -17.6339    1.1732  -17.6595    1.2336
  6.770  -17.5953    1.1115  -17.6661    1.1903  -17.6028    1.1433  -17.6113    1.0922  -17.5413    1.1600  -17.5667    1.2194
  6.780  -17.5030    1.0986  -17.5732    1.1767  -17.5106    1.1305  -17.5191    1.0796  -17.4496    1.1470  -17.4747    1.2055
  6.790  -17.4116    1.0861  -17.4812    1.1634  -17.4193    1.1180  -17.4278    1.0673  -17.3588    1.1343  -17.3836    1.1919
  6.800  -17.3211    1.0737  -17.3901    1.1504  -17.3288    1.1058  -17.3374    1.0551  -17.2688    1.1218  -17.2934    1.1785
  6.810  -17.2314    1.0616  -17.2999    1.1376  -17.2392    1.0937  -17.2479    1.0433  -17.1797    1.1095  -17.2040    1.1654
  6.820  -17.1426    1.0498  -17.2105    1.1251  -17.1504    1.0819  -17.1592    1.0316  -17.0915    1.0975  -17.1155    1.1525
  6.830  -17.0547    1.0381  -17.1219    1.1128  -17.0625    1.0703  -17.0713    1.0202  -17.0040    1.0857  -17.0278    1.1399
  6.840  -16.9675    1.0267  -17.0342    1.1007  -16.9754    1.0589  -16.9842    1.0089  -16.9174    1.0741  -16.9409    1.1275
  6.850  -16.8811    1.0155  -16.9473    1.0888  -16.8891    1.0477  -16.8980    0.9979  -16.8315    1.0628  -16.8548    1.1153
  6.860  -16.7956    1.0045  -16.8612    1.0772  -16.8035    1.0367  -16.8125    0.9871  -16.7465    1.0516  -16.7694    1.1033
  6.870  -16.7108    0.9937  -16.7759    1.0658  -16.7188    1.0259  -16.7278    0.9765  -16.6622    1.0406  -16.6849    1.0916
  6.880  -16.6268    0.9831  -16.6914    1.0545  -16.6348    1.0153  -16.6438    0.9661  -16.5787    1.0298  -16.6011    1.0801
  6.890  -16.5435    0.9727  -16.6076    1.0435  -16.5516    1.0049  -16.5606    0.9558  -16.4959    1.0193  -16.5181    1.0688
  6.900  -16.4610    0.9625  -16.5246    1.0327  -16.4691    0.9947  -16.4781    0.9458  -16.4138    1.0089  -16.4358    1.0576
  6.910  -16.3792    0.9525  -16.4423    1.0220  -16.3873    0.9847  -16.3964    0.9359  -16.3325    0.9986  -16.3542    1.0467
  6.920  -16.2981    0.9426  -16.3608    1.0116  -16.3062    0.9748  -16.3154    0.9262  -16.2519    0.9886  -16.2734    1.0360
  6.930  -16.2177    0.9329  -16.2799    1.0013  -16.2259    0.9651  -16.2351    0.9166  -16.1720    0.9787  -16.1932    1.0255
  6.940  -16.1380    0.9234  -16.1998    0.9912  -16.1463    0.9555  -16.1554    0.9073  -16.0927    0.9690  -16.1138    1.0151
  6.950  -16.0591    0.9140  -16.1204    0.9813  -16.0673    0.9461  -16.0765    0.8980  -16.0142    0.9595  -16.0350    1.0049
  6.960  -15.9808    0.9048  -16.0416    0.9715  -15.9890    0.9369  -15.9982    0.8890  -15.9363    0.9501  -15.9569    0.9949
  6.970  -15.9031    0.8958  -15.9635    0.9620  -15.9114    0.9278  -15.9206    0.8801  -15.8591    0.9409  -15.8795    0.9850
  6.980  -15.8261    0.8869  -15.8861    0.9525  -15.8344    0.9189  -15.8437    0.8713  -15.7825    0.9318  -15.8027    0.9754
  6.990  -15.7498    0.8781  -15.8094    0.9433  -15.7581    0.9101  -15.7674    0.8627  -15.7066    0.9228  -15.7266    0.9658
  7.000  -15.6741    0.8695  -15.7333    0.9341  -15.6824    0.9015  -15.6917    0.8543  -15.6313    0.9141  -15.6511    0.9565
  7.010  -15.5990    0.8611  -15.6578    0.9252  -15.6074    0.8930  -15.6167    0.8459  -15.5566    0.9054  -15.5762    0.9473
  7.020  -15.5246    0.8528  -15.5830    0.9163  -15.5329    0.8846  -15.5422    0.8378  -15.4826    0.8969  -15.5020    0.9382
  7.030  -15.4507    0.8446  -15.5087    0.9076  -15.4591    0.8764  -15.4684    0.8297  -15.4091    0.8885  -15.4283    0.9293
  7.040  -15.3775    0.8365  -15.4351    0.8991  -15.3859    0.8683  -15.3952    0.8218  -15.3363    0.8803  -15.3553    0.9205
  7.050  -15.3048    0.8286  -15.3621    0.8907  -15.3133    0.8603  -15.3226    0.8140  -15.2640    0.8722  -15.2828    0.9119
  7.060  -15.2328    0.8208  -15.2897    0.8824  -15.2412    0.8524  -15.2505    0.8063  -15.1923    0.8642  -15.2110    0.9034
  7.070  -15.1613    0.8132  -15.2179    0.8742  -15.1698    0.8447  -15.1791    0.7987  -15.1212    0.8564  -15.1397    0.8950
  7.080  -15.0904    0.8056  -15.1466    0.8662  -15.0989    0.8371  -15.1082    0.7913  -15.0507    0.8486  -15.0690    0.8868
  7.090  -15.0200    0.7982  -15.0759    0.8583  -15.0285    0.8296  -15.0378    0.7840  -14.9807    0.8410  -14.9988    0.8787
  7.100  -14.9502    0.7909  -15.0058    0.8505  -14.9587    0.8222  -14.9680    0.7768  -14.9113    0.8335  -14.9292    0.8707
  7.110  -14.8810    0.7836  -14.9362    0.8429  -14.8895    0.8149  -14.8988    0.7697  -14.8424    0.8261  -14.8601    0.8628
  7.120  -14.8123    0.7766  -14.8672    0.8353  -14.8208    0.8077  -14.8301    0.7627  -14.7740    0.8188  -14.7916    0.8551
  7.130  -14.7441    0.7696  -14.7987    0.8279  -14.7526    0.8007  -14.7619    0.7558  -14.7062    0.8116  -14.7236    0.8475
  7.140  -14.6765    0.7627  -14.7307    0.8206  -14.6850    0.7937  -14.6943    0.7490  -14.6388    0.8046  -14.6561    0.8400
  7.150  -14.6093    0.7559  -14.6633    0.8133  -14.6179    0.7869  -14.6271    0.7423  -14.5720    0.7976  -14.5891    0.8326
  7.160  -14.5427    0.7492  -14.5963    0.8062  -14.5512    0.7801  -14.5605    0.7357  -14.5058    0.7908  -14.5227    0.8253
  7.170  -14.4766    0.7427  -14.5299    0.7992  -14.4851    0.7734  -14.4944    0.7292  -14.4400    0.7840  -14.4567    0.8181
  7.180  -14.4110    0.7362  -14.4640    0.7923  -14.4195    0.7669  -14.4288    0.7229  -14.3747    0.7773  -14.3912    0.8110
  7.190  -14.3458    0.7298  -14.3986    0.7855  -14.3544    0.7604  -14.3636    0.7166  -14.3098    0.7708  -14.3263    0.8040
  7.200  -14.2812    0.7235  -14.3337    0.7788  -14.2897    0.7540  -14.2990    0.7103  -14.2455    0.7643  -14.2618    0.7972
  7.210  -14.2170    0.7173  -14.2692    0.7722  -14.2256    0.7477  -14.2348    0.7042  -14.1817    0.7579  -14.1978    0.7904
  7.220  -14.1533    0.7112  -14.2053    0.7657  -14.1619    0.7415  -14.1711    0.6982  -14.1183    0.7516  -14.1342    0.7837
  7.230  -14.0901    0.7052  -14.1418    0.7593  -14.0987    0.7354  -14.1079    0.6923  -14.0553    0.7454  -14.0712    0.7771
  7.240  -14.0273    0.6992  -14.0788    0.7529  -14.0359    0.7294  -14.0451    0.6864  -13.9929    0.7393  -14.0086    0.7707
  7.250  -13.9650    0.6934  -14.0162    0.7467  -13.9736    0.7235  -13.9828    0.6806  -13.9309    0.7332  -13.9464    0.7643
  7.260  -13.9031    0.6876  -13.9541    0.7405  -13.9117    0.7176  -13.9209    0.6749  -13.8693    0.7273  -13.8847    0.7579
  7.270  -13.8417    0.6819  -13.8924    0.7345  -13.8503    0.7118  -13.8595    0.6693  -13.8082    0.7214  -13.8234    0.7517
  7.280  -13.7808    0.6763  -13.8312    0.7285  -13.7893    0.7061  -13.7985    0.6638  -13.7475    0.7156  -13.7626    0.7456
  7.290  -13.7202    0.6708  -13.7704    0.7226  -13.7288    0.7005  -13.7379    0.6583  -13.6872    0.7099  -13.7022    0.7395
  7.300  -13.6601    0.6653  -13.7101    0.7167  -13.6687    0.6949  -13.6778    0.6529  -13.6274    0.7043  -13.6422    0.7336
  7.310  -13.6004    0.6599  -13.6502    0.7110  -13.6090    0.6894  -13.6181    0.6476  -13.5680    0.6987  -13.5827    0.7277
  7.320  -13.5411    0.6546  -13.5907    0.7053  -13.5497    0.6840  -13.5588    0.6424  -13.5090    0.6932  -13.5236    0.7219
  7.330  -13.4822    0.6494  -13.5316    0.6997  -13.4908    0.6787  -13.4999    0.6372  -13.4504    0.6878  -13.4648    0.7161
  7.340  -13.4238    0.6442  -13.4729    0.6942  -13.4324    0.6734  -13.4414    0.6321  -13.3922    0.6825  -13.4065    0.7105
  7.350  -13.3657    0.6391  -13.4147    0.6888  -13.3743    0.6682  -13.3834    0.6270  -13.3344    0.6772  -13.3486    0.7049
  7.360  -13.3081    0.6341  -13.3568    0.6834  -13.3166    0.6631  -13.3257    0.6221  -13.2770    0.6720  -13.2911    0.6994
  7.370  -13.2508    0.6291  -13.2994    0.6781  -13.2594    0.6580  -13.2684    0.6172  -13.2200    0.6669  -13.2340    0.6940
  7.380  -13.1939    0.6242  -13.2423    0.6728  -13.2025    0.6530  -13.2115    0.6123  -13.1634    0.6618  -13.1772    0.6886
  7.390  -13.1374    0.6194  -13.1856    0.6677  -13.1460    0.6481  -13.1550    0.6075  -13.1071    0.6568  -13.1209    0.6833
  7.400  -13.0813    0.6146  -13.1293    0.6626  -13.0899    0.6432  -13.0989    0.6028  -13.0513    0.6518  -13.0649    0.6781
  7.410  -13.0256    0.6099  -13.0734    0.6575  -13.0341    0.6384  -13.0431    0.5982  -12.9958    0.6470  -13.0093    0.6729
  7.420  -12.9702    0.6053  -13.0179    0.6525  -12.9787    0.6337  -12.9877    0.5936  -12.9407    0.6422  -12.9541    0.6678
  7.430  -12.9152    0.6007  -12.9627    0.6476  -12.9237    0.6290  -12.9327    0.5890  -12.8859    0.6374  -12.8992    0.6628
  7.440  -12.8606    0.5961  -12.9079    0.6428  -12.8691    0.6244  -12.8780    0.5846  -12.8315    0.6327  -12.8447    0.6579
  7.450  -12.8063    0.5917  -12.8535    0.6380  -12.8148    0.6198  -12.8237    0.5801  -12.7775    0.6281  -12.7905    0.6530
  7.460  -12.7524    0.5873  -12.7994    0.6333  -12.7609    0.6153  -12.7698    0.5758  -12.7238    0.6235  -12.7367    0.6481
  7.470  -12.6988    0.5829  -12.7457    0.6286  -12.7073    0.6108  -12.7162    0.5715  -12.6705    0.6190  -12.6833    0.6433
  7.480  -12.6456    0.5786  -12.6923    0.6240  -12.6540    0.6064  -12.6629    0.5672  -12.6175    0.6145  -12.6302    0.6386
  7.490  -12.5927    0.5744  -12.6393    0.6194  -12.6011    0.6020  -12.6100    0.5630  -12.5648    0.6101  -12.5774    0.6340
  7.500  -12.5401    0.5702  -12.5866    0.6149  -12.5486    0.5977  -12.5575    0.5588  -12.5125    0.6057  -12.5250    0.6294
  7.510  -12.4879    0.5660  -12.5342    0.6105  -12.4964    0.5935  -12.5052    0.5547  -12.4605    0.6014  -12.4729    0.6248
  7.520  -12.4360    0.5619  -12.4822    0.6061  -12.4445    0.5893  -12.4533    0.5507  -12.4088    0.5972  -12.4212    0.6203
  7.530  -12.3845    0.5579  -12.4305    0.6017  -12.3929    0.5852  -12.4017    0.5467  -12.3575    0.5930  -12.3697    0.6159
  7.540  -12.3332    0.5539  -12.3792    0.5975  -12.3416    0.5811  -12.3505    0.5427  -12.3065    0.5888  -12.3186    0.6115
  7.550  -12.2823    0.5500  -12.3281    0.5932  -12.2907    0.5770  -12.2995    0.5388  -12.2558    0.5847  -12.2678    0.6072
  7.560  -12.2317    0.5461  -12.2774    0.5890  -12.2401    0.5730  -12.2489    0.5350  -12.2054    0.5807  -12.2174    0.6030
  7.570  -12.1814    0.5422  -12.2270    0.5849  -12.1898    0.5691  -12.1986    0.5312  -12.1553    0.5767  -12.1672    0.5987
  7.580  -12.1314    0.5384  -12.1769    0.5808  -12.1398    0.5652  -12.1486    0.5274  -12.1056    0.5727  -12.1173    0.5946
  7.590  -12.0817    0.5347  -12.1272    0.5768  -12.0901    0.5613  -12.0989    0.5237  -12.0561    0.5688  -12.0678    0.5904
  7.600  -12.0324    0.5310  -12.0777    0.5728  -12.0407    0.5575  -12.0495    0.5200  -12.0070    0.5650  -12.0185    0.5864
  7.610  -11.9833    0.5273  -12.0285    0.5689  -11.9916    0.5537  -12.0004    0.5164  -11.9581    0.5612  -11.9696    0.5824
  7.620  -11.9345    0.5237  -11.9797    0.5650  -11.9429    0.5500  -11.9516    0.5128  -11.9095    0.5574  -11.9209    0.5784
  7.630  -11.8860    0.5201  -11.9311    0.5611  -11.8944    0.5463  -11.9031    0.5092  -11.8613    0.5537  -11.8726    0.5745
  7.640  -11.8378    0.5166  -11.8828    0.5573  -11.8461    0.5427  -11.8549    0.5057  -11.8133    0.5500  -11.8245    0.5706
  7.650  -11.7899    0.5131  -11.8348    0.5535  -11.7982    0.5391  -11.8070    0.5022  -11.7656    0.5464  -11.7767    0.5667
  7.660  -11.7423    0.5096  -11.7871    0.5498  -11.7506    0.5355  -11.7593    0.4988  -11.7182    0.5428  -11.7292    0.5630
  7.670  -11.6950    0.5062  -11.7397    0.5462  -11.7032    0.5320  -11.7119    0.4954  -11.6710    0.5392  -11.6820    0.5592
  7.680  -11.6479    0.5029  -11.6926    0.5425  -11.6561    0.5286  -11.6648    0.4921  -11.6241    0.5357  -11.6350    0.5555
  7.690  -11.6011    0.4995  -11.6457    0.5389  -11.6093    0.5251  -11.6180    0.4888  -11.5776    0.5322  -11.5884    0.5519
  7.700  -11.5546    0.4962  -11.5991    0.5354  -11.5628    0.5217  -11.5715    0.4855  -11.5312    0.5288  -11.5420    0.5483
  7.710  -11.5083    0.4930  -11.5528    0.5319  -11.5165    0.5184  -11.5252    0.4823  -11.4852    0.5254  -11.4958    0.5447
  7.720  -11.4623    0.4898  -11.5068    0.5284  -11.4705    0.5151  -11.4792    0.4791  -11.4394    0.5220  -11.4499    0.5411
  7.730  -11.4166    0.4866  -11.4610    0.5250  -11.4248    0.5118  -11.4334    0.4759  -11.3938    0.5187  -11.4043    0.5377
  7.740  -11.3711    0.4835  -11.4155    0.5216  -11.3793    0.5086  -11.3879    0.4728  -11.3486    0.5154  -11.3590    0.5342
  7.750  -11.3259    0.4804  -11.3702    0.5182  -11.3340    0.5053  -11.3427    0.4697  -11.3036    0.5122  -11.3139    0.5308
  7.760  -11.2809    0.4773  -11.3253    0.5149  -11.2891    0.5022  -11.2977    0.4666  -11.2588    0.5090  -11.2691    0.5274
  7.770  -11.2362    0.4743  -11.2805    0.5116  -11.2443    0.4990  -11.2530    0.4636  -11.2143    0.5058  -11.2245    0.5241
  7.780  -11.1917    0.4713  -11.2360    0.5084  -11.1999    0.4960  -11.2085    0.4606  -11.1700    0.5027  -11.1801    0.5208
  7.790  -11.1475    0.4683  -11.1918    0.5052  -11.1556    0.4929  -11.1643    0.4577  -11.1260    0.4996  -11.1360    0.5176
  7.800  -11.1035    0.4654  -11.1478    0.5020  -11.1116    0.4899  -11.1203    0.4547  -11.0822    0.4966  -11.0922    0.5143
  7.810  -11.0598    0.4625  -11.1041    0.4989  -11.0679    0.4869  -11.0765    0.4519  -11.0387    0.4935  -11.0486    0.5112
  7.820  -11.0163    0.4596  -11.0606    0.4958  -11.0244    0.4839  -11.0330    0.4490  -10.9954    0.4905  -11.0052    0.5080
  7.830  -10.9730    0.4568  -11.0173    0.4927  -10.9811    0.4810  -10.9897    0.4462  -10.9523    0.4876  -10.9621    0.5049
  7.840  -10.9300    0.4540  -10.9743    0.4897  -10.9380    0.4781  -10.9467    0.4434  -10.9094    0.4847  -10.9191    0.5018
  7.850  -10.8872    0.4513  -10.9315    0.4867  -10.8952    0.4752  -10.9039    0.4406  -10.8668    0.4818  -10.8765    0.4988
  7.860  -10.8446    0.4485  -10.8889    0.4837  -10.8526    0.4724  -10.8613    0.4379  -10.8245    0.4789  -10.8340    0.4958
  7.870  -10.8023    0.4458  -10.8466    0.4808  -10.8103    0.4696  -10.8189    0.4352  -10.7823    0.4761  -10.7918    0.4928
  7.880  -10.7602    0.4432  -10.8045    0.4779  -10.7681    0.4668  -10.7768    0.4325  -10.7404    0.4733  -10.7498    0.4899
  7.890  -10.7183    0.4405  -10.7626    0.4750  -10.7262    0.4641  -10.7349    0.4299  -10.6986    0.4706  -10.7080    0.4870
  7.900  -10.6766    0.4379  -10.7210    0.4722  -10.6845    0.4614  -10.6932    0.4273  -10.6571    0.4678  -10.6665    0.4841
  7.910  -10.6351    0.4354  -10.6795    0.4694  -10.6430    0.4587  -10.6517    0.4247  -10.6159    0.4651  -10.6251    0.4813
  7.920  -10.5938    0.4328  -10.6383    0.4666  -10.6017    0.4561  -10.6104    0.4221  -10.5748    0.4625  -10.5840    0.4785
  7.930  -10.5528    0.4303  -10.5973    0.4638  -10.5606    0.4535  -10.5694    0.4196  -10.5339    0.4598  -10.5430    0.4757
  7.940  -10.5119    0.4278  -10.5565    0.4611  -10.5198    0.4509  -10.5285    0.4171  -10.4933    0.4572  -10.5023    0.4730
  7.950  -10.4713    0.4254  -10.5160    0.4584  -10.4791    0.4483  -10.4878    0.4146  -10.4528    0.4547  -10.4618    0.4703
  7.960  -10.4309    0.4229  -10.4756    0.4558  -10.4387    0.4458  -10.4474    0.4122  -10.4126    0.4521  -10.4215    0.4676
  7.970  -10.3906    0.4205  -10.4354    0.4532  -10.3984    0.4433  -10.4072    0.4098  -10.3725    0.4496  -10.3814    0.4650
  7.980  -10.3506    0.4182  -10.3955    0.4506  -10.3584    0.4408  -10.3671    0.4074  -10.3327    0.4471  -10.3415    0.4624
  7.990  -10.3107    0.4158  -10.3557    0.4480  -10.3185    0.4384  -10.3273    0.4050  -10.2930    0.4447  -10.3018    0.4598
  8.000  -10.2711    0.4135  -10.3161    0.4455  -10.2788    0.4360  -10.2876    0.4027  -10.2536    0.4422  -10.2623    0.4572
  8.010  -10.2316    0.4112  -10.2768    0.4429  -10.2394    0.4336  -10.2482    0.4004  -10.2143    0.4398  -10.2230    0.4547
  8.020  -10.1924    0.4090  -10.2376    0.4405  -10.2001    0.4313  -10.2089    0.3981  -10.1752    0.4375  -10.1838    0.4522
  8.030  -10.1533    0.4067  -10.1986    0.4380  -10.1610    0.4289  -10.1698    0.3958  -10.1363    0.4351  -10.1449    0.4498
  8.040  -10.1144    0.4045  -10.1599    0.4356  -10.1221    0.4266  -10.1309    0.3936  -10.0976    0.4328  -10.1061    0.4473
  8.050  -10.0757    0.4024  -10.1213    0.4332  -10.0833    0.4244  -10.0922    0.3914  -10.0591    0.4305  -10.0675    0.4449
  8.060  -10.0371    0.4002  -10.0829    0.4308  -10.0448    0.4221  -10.0537    0.3892  -10.0208    0.4283  -10.0292    0.4425
  8.070   -9.9988    0.3981  -10.0446    0.4285  -10.0064    0.4199  -10.0153    0.3870   -9.9826    0.4260   -9.9909    0.4402
  8.080   -9.9606    0.3960  -10.0066    0.4261   -9.9682    0.4177   -9.9771    0.3849   -9.9446    0.4238   -9.9529    0.4379
  8.090   -9.9226    0.3939   -9.9687    0.4238   -9.9302    0.4155   -9.9391    0.3828   -9.9068    0.4216   -9.9150    0.4356
  8.100   -9.8848    0.3919   -9.9311    0.4216   -9.8923    0.4134   -9.9013    0.3807   -9.8692    0.4195   -9.8773    0.4333
  8.110   -9.8471    0.3899   -9.8936    0.4193   -9.8546    0.4113   -9.8636    0.3786   -9.8317    0.4174   -9.8398    0.4311
  8.120   -9.8096    0.3879   -9.8562    0.4171   -9.8171    0.4092   -9.8261    0.3766   -9.7944    0.4153   -9.8025    0.4289
  8.130   -9.7723    0.3859   -9.8191    0.4149   -9.7798    0.4071   -9.7888    0.3746   -9.7573    0.4132   -9.7653    0.4267
  8.140   -9.7351    0.3840   -9.7821    0.4127   -9.7426    0.4051   -9.7516    0.3726   -9.7203    0.4112   -9.7283    0.4246
  8.150   -9.6981    0.3820   -9.7452    0.4106   -9.7055    0.4031   -9.7146    0.3706   -9.6835    0.4091   -9.6914    0.4225
  8.160   -9.6612    0.3802   -9.7086    0.4085   -9.6687    0.4011   -9.6778    0.3686   -9.6468    0.4072   -9.6547    0.4204
  8.170   -9.6245    0.3783   -9.6721    0.4064   -9.6319    0.3991   -9.6411    0.3667   -9.6103    0.4052   -9.6182    0.4183
  8.180   -9.5880    0.3764   -9.6358    0.4043   -9.5954    0.3972   -9.6046    0.3648   -9.5740    0.4033   -9.5818    0.4163
  8.190   -9.5516    0.3746   -9.5996    0.4023   -9.5590    0.3953   -9.5682    0.3629   -9.5378    0.4013   -9.5455    0.4143
  8.200   -9.5153    0.3728   -9.5636    0.4003   -9.5227    0.3934   -9.5319    0.3611   -9.5017    0.3995   -9.5094    0.4123
  8.210   -9.4792    0.3711   -9.5277    0.3983   -9.4866    0.3915   -9.4959    0.3592   -9.4659    0.3976   -9.4735    0.4103
  8.220   -9.4433    0.3693   -9.4920    0.3963   -9.4506    0.3897   -9.4599    0.3574   -9.4301    0.3958   -9.4377    0.4084
  8.230   -9.4075    0.3676   -9.4565    0.3944   -9.4148    0.3879   -9.4241    0.3556   -9.3945    0.3940   -9.4021    0.4065
  8.240   -9.3718    0.3659   -9.4211    0.3924   -9.3791    0.3861   -9.3885    0.3539   -9.3590    0.3922   -9.3666    0.4046
  8.250   -9.3362    0.3643   -9.3858    0.3905   -9.3435    0.3844   -9.3530    0.3521   -9.3237    0.3904   -9.3312    0.4028
  8.260   -9.3008    0.3627   -9.3507    0.3887   -9.3081    0.3826   -9.3176    0.3504   -9.2885    0.3887   -9.2960    0.4010
  8.270   -9.2656    0.3610   -9.3157    0.3868   -9.2728    0.3809   -9.2823    0.3487   -9.2535    0.3870   -9.2609    0.3992
  8.280   -9.2304    0.3595   -9.2809    0.3850   -9.2376    0.3793   -9.2472    0.3470   -9.2186    0.3853   -9.2259    0.3974
  8.290   -9.1954    0.3579   -9.2462    0.3832   -9.2026    0.3776   -9.2122    0.3454   -9.1838    0.3837   -9.1911    0.3957
  8.300   -9.1605    0.3564   -9.2117    0.3814   -9.1677    0.3760   -9.1774    0.3438   -9.1491    0.3821   -9.1564    0.3940
  8.310   -9.1258    0.3549   -9.1773    0.3797   -9.1329    0.3744   -9.1426    0.3422   -9.1146    0.3805   -9.1218    0.3923
  8.320   -9.0911    0.3534   -9.1430    0.3779   -9.0982    0.3728   -9.1080    0.3406   -9.0802    0.3789   -9.0874    0.3907
  8.330   -9.0566    0.3519   -9.1088    0.3762   -9.0637    0.3713   -9.0735    0.3390   -9.0459    0.3774   -9.0530    0.3890
  8.340   -9.0222    0.3505   -9.0748    0.3746   -9.0292    0.3697   -9.0391    0.3375   -9.0117    0.3759   -9.0188    0.3874
  8.350   -8.9879    0.3491   -9.0409    0.3729   -8.9949    0.3683   -9.0049    0.3360   -8.9777    0.3744   -8.9847    0.3859
  8.360   -8.9537    0.3477   -9.0072    0.3713   -8.9607    0.3668   -8.9707    0.3345   -8.9437    0.3729   -8.9507    0.3843
  8.370   -8.9196    0.3464   -8.9735    0.3697   -8.9266    0.3653   -8.9367    0.3330   -8.9099    0.3715   -8.9169    0.3828
  8.380   -8.8856    0.3451   -8.9400    0.3681   -8.8926    0.3639   -8.9028    0.3315   -8.8762    0.3701   -8.8831    0.3814
  8.390   -8.8518    0.3438   -8.9066    0.3665   -8.8587    0.3626   -8.8689    0.3301   -8.8425    0.3688   -8.8495    0.3799
  8.400   -8.8180    0.3425   -8.8733    0.3650   -8.8249    0.3612   -8.8352    0.3287   -8.8090    0.3674   -8.8159    0.3785
  8.410   -8.7843    0.3413   -8.8401    0.3635   -8.7912    0.3599   -8.8016    0.3273   -8.7756    0.3661   -8.7825    0.3771
  8.420   -8.7507    0.3401   -8.8070    0.3620   -8.7576    0.3586   -8.7680    0.3260   -8.7423    0.3648   -8.7491    0.3758
  8.430   -8.7172    0.3389   -8.7741    0.3605   -8.7241    0.3573   -8.7346    0.3247   -8.7091    0.3636   -8.7158    0.3745
  8.440   -8.6838    0.3378   -8.7412    0.3591   -8.6906    0.3561   -8.7012    0.3233   -8.6759    0.3624   -8.6827    0.3732
  8.450   -8.6505    0.3367   -8.7085    0.3577   -8.6573    0.3549   -8.6680    0.3221   -8.6429    0.3612   -8.6496    0.3719
  8.460   -8.6172    0.3356   -8.6758    0.3563   -8.6240    0.3537   -8.6348    0.3208   -8.6100    0.3601   -8.6166    0.3707
  8.470   -8.5841    0.3346   -8.6433    0.3550   -8.5908    0.3526   -8.6017    0.3196   -8.5771    0.3589   -8.5837    0.3695
  8.480   -8.5510    0.3336   -8.6108    0.3536   -8.5577    0.3515   -8.5687    0.3184   -8.5443    0.3579   -8.5509    0.3684
  8.490   -8.5180    0.3326   -8.5784    0.3523   -8.5247    0.3504   -8.5357    0.3172   -8.5116    0.3568   -8.5182    0.3672
  8.500   -8.4850    0.3317   -8.5462    0.3511   -8.4917    0.3493   -8.5029    0.3161   -8.4790    0.3558   -8.4855    0.3661
  8.510   -8.4522    0.3307   -8.5140    0.3498   -8.4588    0.3483   -8.4701    0.3149   -8.4464    0.3548   -8.4529    0.3651
  8.520   -8.4193    0.3299   -8.4819    0.3486   -8.4259    0.3474   -8.4373    0.3138   -8.4139    0.3539   -8.4204    0.3641
  8.530   -8.3866    0.3290   -8.4499    0.3474   -8.3931    0.3464   -8.4046    0.3128   -8.3815    0.3530   -8.3879    0.3631
  8.540   -8.3539    0.3282   -8.4180    0.3462   -8.3604    0.3455   -8.3720    0.3117   -8.3491    0.3521   -8.3555    0.3622
  8.550   -8.3212    0.3275   -8.3861    0.3451   -8.3277    0.3447   -8.3394    0.3107   -8.3168    0.3513   -8.3232    0.3613
  8.560   -8.2886    0.3268   -8.3544    0.3440   -8.2950    0.3438   -8.3069    0.3097   -8.2845    0.3505   -8.2909    0.3604
  8.570   -8.2560    0.3261   -8.3227    0.3429   -8.2624    0.3431   -8.2744    0.3088   -8.2523    0.3498   -8.2586    0.3596
  8.580   -8.2235    0.3255   -8.2910    0.3419   -8.2298    0.3423   -8.2420    0.3079   -8.2202    0.3491   -8.2265    0.3589
  8.590   -8.1910    0.3249   -8.2595    0.3409   -8.1973    0.3416   -8.2096    0.3070   -8.1880    0.3484   -8.1943    0.3582
  8.600   -8.1585    0.3243   -8.2279    0.3399   -8.1648    0.3410   -8.1772    0.3061   -8.1560    0.3478   -8.1622    0.3575
  8.610   -8.1260    0.3238   -8.1965    0.3389   -8.1323    0.3404   -8.1448    0.3053   -8.1239    0.3472   -8.1301    0.3569
  8.620   -8.0936    0.3234   -8.1651    0.3380   -8.0998    0.3398   -8.1125    0.3045   -8.0919    0.3467   -8.0981    0.3563
  8.630   -8.0612    0.3230   -8.1338    0.3371   -8.0673    0.3393   -8.0802    0.3038   -8.0599    0.3463   -8.0661    0.3558
  8.640   -8.0288    0.3226   -8.1025    0.3363   -8.0349    0.3388   -8.0479    0.3031   -8.0279    0.3459   -8.0341    0.3553
  8.650   -7.9963    0.3223   -8.0713    0.3355   -8.0024    0.3384   -8.0156    0.3024   -7.9960    0.3455   -8.0021    0.3549
  8.660   -7.9639    0.3221   -8.0401    0.3347   -7.9700    0.3381   -7.9833    0.3018   -7.9640    0.3452   -7.9701    0.3545
  8.670   -7.9315    0.3219   -8.0089    0.3340   -7.9375    0.3378   -7.9510    0.3012   -7.9321    0.3450   -7.9381    0.3542
  8.680   -7.8991    0.3218   -7.9778    0.3333   -7.9050    0.3375   -7.9187    0.3007   -7.9001    0.3448   -7.9062    0.3540
  8.690   -7.8666    0.3218   -7.9467    0.3326   -7.8725    0.3374   -7.8864    0.3002   -7.8682    0.3447   -7.8742    0.3538
  8.700   -7.8341    0.3218   -7.9156    0.3320   -7.8399    0.3373   -7.8540    0.2997   -7.8362    0.3446   -7.8422    0.3537
  8.710   -7.8016    0.3219   -7.8845    0.3315   -7.8073    0.3372   -7.8217    0.2993   -7.8042    0.3446   -7.8102    0.3537
  8.720   -7.7690    0.3220   -7.8535    0.3309   -7.7747    0.3372   -7.7892    0.2990   -7.7722    0.3447   -7.7782    0.3537
  8.730   -7.7364    0.3222   -7.8225    0.3305   -7.7420    0.3373   -7.7568    0.2987   -7.7402    0.3449   -7.7461    0.3538
  8.740   -7.7037    0.3226   -7.7915    0.3300   -7.7092    0.3375   -7.7242    0.2985   -7.7081    0.3451   -7.7140    0.3540
  8.750   -7.6709    0.3230   -7.7605    0.3297   -7.6764    0.3378   -7.6916    0.2983   -7.6760    0.3455   -7.6819    0.3543
  8.760   -7.6381    0.3235   -7.7294    0.3293   -7.6435    0.3381   -7.6590    0.2982   -7.6438    0.3459   -7.6496    0.3546
  8.770   -7.6052    0.3240   -7.6984    0.3291   -7.6105    0.3386   -7.6262    0.2981   -7.6116    0.3464   -7.6174    0.3551
  8.780   -7.5721    0.3247   -7.6674    0.3288   -7.5774    0.3391   -7.5934    0.2981   -7.5793    0.3470   -7.5850    0.3557
  8.790   -7.5390    0.3255   -7.6363    0.3287   -7.5442    0.3398   -7.5604    0.2982   -7.5469    0.3477   -7.5526    0.3563
  8.800   -7.5058    0.3264   -7.6052    0.3286   -7.5108    0.3405   -7.5274    0.2984   -7.5144    0.3485   -7.5201    0.3571
  8.810   -7.4724    0.3274   -7.5741    0.3285   -7.4773    0.3414   -7.4942    0.2986   -7.4818    0.3495   -7.4875    0.3580
  8.820   -7.4388    0.3286   -7.5429    0.3286   -7.4437    0.3423   -7.4609    0.2990   -7.4491    0.3505   -7.4548    0.3590
  8.830   -7.4052    0.3299   -7.5117    0.3287   -7.4099    0.3434   -7.4274    0.2994   -7.4163    0.3517   -7.4220    0.3601
  8.840   -7.3713    0.3313   -7.4804    0.3289   -7.3760    0.3447   -7.3937    0.2999   -7.3833    0.3530   -7.3890    0.3614
  8.850   -7.3373    0.3329   -7.4491    0.3291   -7.3418    0.3461   -7.3599    0.3005   -7.3502    0.3545   -7.3559    0.3628
  8.860   -7.3030    0.3346   -7.4177    0.3294   -7.3074    0.3476   -7.3259    0.3013   -7.3170    0.3561   -7.3226    0.3644
  8.870   -7.2686    0.3365   -7.3862    0.3299   -7.2728    0.3493   -7.2917    0.3021   -7.2836    0.3579   -7.2892    0.3661
  8.880   -7.2339    0.3386   -7.3546    0.3304   -7.2380    0.3512   -7.2572    0.3031   -7.2500    0.3598   -7.2556    0.3680
  8.890   -7.1990    0.3409   -7.3230    0.3310   -7.2029    0.3532   -7.2225    0.3042   -7.2161    0.3620   -7.2217    0.3701
  8.900   -7.1637    0.3434   -7.2912    0.3317   -7.1675    0.3555   -7.1875    0.3054   -7.1821    0.3643   -7.1877    0.3724
  8.910   -7.1282    0.3461   -7.2593    0.3325   -7.1317    0.3580   -7.1522    0.3068   -7.1478    0.3669   -7.1534    0.3749
  8.920   -7.0924    0.3491   -7.2272    0.3334   -7.0957    0.3607   -7.1166    0.3084   -7.1133    0.3697   -7.1189    0.3776
  8.930   -7.0562    0.3523   -7.1951    0.3344   -7.0593    0.3637   -7.0806    0.3101   -7.0785    0.3727   -7.0840    0.3806
  8.940   -7.0197    0.3558   -7.1627    0.3356   -7.0225    0.3670   -7.0443    0.3121   -7.0434    0.3760   -7.0489    0.3839
  8.950   -6.9827    0.3596   -7.1302    0.3369   -6.9853    0.3705   -7.0076    0.3142   -7.0080    0.3796   -7.0135    0.3874
  8.960   -6.9454    0.3638   -7.0975    0.3383   -6.9476    0.3744   -6.9704    0.3166   -6.9723    0.3835   -6.9778    0.3913
  8.970   -6.9075    0.3683   -7.0646    0.3399   -6.9095    0.3786   -6.9328    0.3192   -6.9362    0.3877   -6.9416    0.3955
  8.980   -6.8692    0.3732   -7.0315    0.3416   -6.8708    0.3832   -6.8946    0.3221   -6.8997    0.3923   -6.9051    0.4000
  8.990   -6.8304    0.3786   -6.9982    0.3435   -6.8316    0.3882   -6.8559    0.3253   -6.8627    0.3973   -6.8682    0.4050
  9.000   -6.7910    0.3844   -6.9646    0.3456   -6.7918    0.3936   -6.8167    0.3287   -6.8254    0.4027   -6.8308    0.4104
  9.010   -6.7510    0.3908   -6.9308    0.3479   -6.7513    0.3996   -6.7768    0.3326   -6.7875    0.4086   -6.7929    0.4162
  9.020   -6.7103    0.3977   -6.8966    0.3504   -6.7101    0.4061   -6.7361    0.3368   -6.7491    0.4150   -6.7545    0.4226
  9.030   -6.6689    0.4052   -6.8622    0.3532   -6.6681    0.4132   -6.6948    0.3415   -6.7102    0.4220   -6.7156    0.4295
  9.040   -6.6268    0.4134   -6.8274    0.3562   -6.6253    0.4209   -6.6526    0.3466   -6.6707    0.4296   -6.6761    0.4370
  9.050   -6.5839    0.4224   -6.7922    0.3594   -6.5817    0.4294   -6.6096    0.3523   -6.6305    0.4378   -6.6359    0.4453
  9.060   -6.5400    0.4322   -6.7567    0.3629   -6.5371    0.4387   -6.5656    0.3585   -6.5897    0.4468   -6.5951    0.4542
  9.070   -6.4953    0.4429   -6.7207    0.3667   -6.4914    0.4489   -6.5206    0.3654   -6.5481    0.4567   -6.5535    0.4640
  9.080   -6.4495    0.4547   -6.6843    0.3709   -6.4447    0.4601   -6.4744    0.3730   -6.5057    0.4674   -6.5111    0.4747
  9.090   -6.4027    0.4676   -6.6475    0.3754   -6.3967    0.4725   -6.4271    0.3814   -6.4625    0.4791   -6.4679    0.4864
  9.100   -6.3547    0.4818   -6.6101    0.3803   -6.3475    0.4861   -6.3784    0.3908   -6.4185    0.4920   -6.4239    0.4993
  9.110   -6.3055    0.4974   -6.5721    0.3857   -6.2968    0.5011   -6.3282    0.4011   -6.3735    0.5061   -6.3789    0.5134
  9.120   -6.2550    0.5146   -6.5336    0.3915   -6.2446    0.5177   -6.2765    0.4127   -6.3274    0.5217   -6.3328    0.5289
  9.130   -6.2030    0.5337   -6.4944    0.3978   -6.1907    0.5361   -6.2231    0.4255   -6.2804    0.5388   -6.2858    0.5459
  9.140   -6.1495    0.5549   -6.4546    0.4047   -6.1351    0.5566   -6.1678    0.4399   -6.2322    0.5577   -6.2376    0.5648
  9.150   -6.0944    0.5784   -6.4140    0.4122   -6.0776    0.5794   -6.1104    0.4560   -6.1828    0.5785   -6.1882    0.5856
  9.160   -6.0377    0.6045   -6.3726    0.4203   -6.0180    0.6050   -6.0508    0.4742   -6.1322    0.6017   -6.1376    0.6087
  9.170   -5.9791    0.6338   -6.3303    0.4292   -5.9561    0.6336   -5.9888    0.4946   -6.0803    0.6274   -6.0858    0.6344
  9.180   -5.9186    0.6665   -6.2872    0.4389   -5.8919    0.6659   -5.9240    0.5178   -6.0271    0.6560   -6.0326    0.6630
  9.190   -5.8562    0.7032   -6.2430    0.4495   -5.8251    0.7023   -5.8564    0.5442   -5.9726    0.6879   -5.9781    0.6949
  9.200   -5.7919    0.7446   -6.1978    0.4611   -5.7556    0.7436   -5.7855    0.5743   -5.9168    0.7236   -5.9223    0.7306
  9.210   -5.7255    0.7913   -6.1514    0.4739   -5.6833    0.7906   -5.7112    0.6087   -5.8598    0.7637   -5.8653    0.7706
  9.220   -5.6572    0.8442   -6.1038    0.4878   -5.6082    0.8444   -5.6331    0.6485   -5.8016    0.8089   -5.8071    0.8157
  9.230   -5.5872    0.9043   -6.0548    0.5032   -5.5301    0.9061   -5.5511    0.6945   -5.7425    0.8597   -5.7481    0.8666
  9.240   -5.5158    0.9728   -6.0044    0.5201   -5.4492    0.9772   -5.4648    0.7480   -5.6828    0.9172   -5.6884    0.9241
  9.250   -5.4433    1.0510   -5.9524    0.5388   -5.3659    1.0596   -5.3743    0.8107   -5.6231    0.9824   -5.6287    0.9892
  9.260   -5.3707    1.1407   -5.8986    0.5595   -5.2806    1.1554   -5.2794    0.8844   -5.5639    1.0564   -5.5696    1.0631
  9.270   -5.2990    1.2436   -5.8430    0.5825   -5.1946    1.2673   -5.1805    0.9716   -5.5065    1.1403   -5.5122    1.1471
  9.280   -5.2300    1.3617   -5.7853    0.6081   -5.1094    1.3985   -5.0783    1.0752   -5.4523    1.2357   -5.4580    1.2425
  9.290   -5.1660    1.4974   -5.7254    0.6367   -5.0279    1.5526   -4.9743    1.1990   -5.4033    1.3439   -5.4091    1.3507
  9.300   -5.1106    1.6529   -5.6631    0.6687   -4.9544    1.7337   -4.8711    1.3472   -5.3623    1.4662   -5.3682    1.4729
  9.310   -5.0683    1.8303   -5.5982    0.7047   -4.8953    1.9461   -4.7729    1.5248   -5.3331    1.6034   -5.3391    1.6101
  9.320   -5.0458    2.0309   -5.5303    0.7455   -4.8600    2.1935   -4.6866    1.7369   -5.3205    1.7556   -5.3266    1.7624
  9.330   -5.0511    2.2548   -5.4593    0.7919   -4.8620    2.4777   -4.6226    1.9880   -5.3305    1.9217   -5.3367    1.9285
  9.340   -5.0945    2.4993   -5.3849    0.8452   -4.9189    2.7960   -4.5958    2.2802   -5.3697    2.0980   -5.3761    2.1048
  9.350   -5.1875    2.7574   -5.3072    0.9069   -5.0518    3.1379   -4.6254    2.6100   -5.4450    2.2778   -5.4516    2.2847
  9.360   -5.3410    3.0164   -5.2262    0.9791   -5.2817    3.4805   -4.7335    2.9639   -5.5613    2.4503   -5.5684    2.4573
  9.370   -5.5620    3.2566   -5.1427    1.0641   -5.6212    3.7860   -4.9390    3.3150   -5.7197    2.6012   -5.7272    2.6081
  9.380   -5.8487    3.4529   -5.0584    1.1646   -6.0633    4.0055   -5.2477    3.6231   -5.9138    2.7144   -5.9219    2.7210
  9.390   -6.1869    3.5799   -4.9759    1.2832   -6.5725    4.0928   -5.6424    3.8438   -6.1293    2.7767   -6.1379    2.7829
  9.400   -6.5494    3.6203   -4.8985    1.4220   -7.0885    4.0245   -6.0813    3.9454   -6.3455    2.7832   -6.3547    2.7887
  9.410   -6.9036    3.5717   -4.8303    1.5825   -7.5461    3.8133   -6.5109    3.9232   -6.5417    2.7396   -6.5512    2.7443
  9.420   -7.2205    3.4473   -4.7759    1.7659   -7.8988    3.5026   -6.8863    3.8011   -6.7033    2.6605   -6.7128    2.6642
  9.430   -7.4824    3.2696   -4.7406    1.9730   -8.1307    3.1469   -7.1842    3.6180   -6.8243    2.5640   -6.8338    2.5668
  9.440   -7.6840    3.0630   -4.7315    2.2044   -8.2519    2.7929   -7.4043    3.4119   -6.9076    2.4670   -6.9167    2.4689
  9.450   -7.8297    2.8476   -4.7572    2.4588   -8.2864    2.4712   -7.5606    3.2100   -6.9616    2.3819   -6.9702    2.3831
  9.460   -7.9287    2.6375   -4.8289    2.7321   -8.2611    2.1966   -7.6727    3.0268   -6.9976    2.3161   -7.0056    2.3166
  9.470   -7.9921    2.4402   -4.9583    3.0153   -8.1998    1.9728   -7.7592    2.8659   -7.0279    2.2714   -7.0352    2.2714
  9.480   -8.0300    2.2586   -5.1560    3.2929   -8.1218    1.7968   -7.8349    2.7236   -7.0639    2.2449   -7.0705    2.2444
  9.490   -8.0505    2.0918   -5.4275    3.5428   -8.0413    1.6613   -7.9091    2.5915   -7.1144    2.2290   -7.1201    2.2283
  9.500   -8.0589    1.9371   -5.7685    3.7379   -7.9678    1.5572   -7.9845    2.4597   -7.1838    2.2132   -7.1887    2.2124
  9.510   -8.0577    1.7915   -6.1620    3.8523   -7.9065    1.4743   -8.0585    2.3197   -7.2710    2.1860   -7.2751    2.1851
  9.520   -8.0475    1.6526   -6.5786    3.8684   -7.8582    1.4031   -8.1240    2.1668   -7.3692    2.1377   -7.3725    2.1371
  9.530   -8.0276    1.5197   -6.9832    3.7834   -7.8207    1.3363   -8.1730    2.0015   -7.4679    2.0637   -7.4705    2.0634
  9.540   -7.9975    1.3934   -7.3436    3.6105   -7.7896    1.2691   -8.1992    1.8289   -7.5561    1.9651   -7.5582    1.9653
  9.550   -7.9575    1.2751   -7.6379    3.3739   -7.7605    1.2001   -8.2003    1.6563   -7.6254    1.8479   -7.6271    1.8486
  9.560   -7.9091    1.1661   -7.8578    3.1014   -7.7299    1.1297   -8.1776    1.4910   -7.6717    1.7202   -7.6731    1.7213
  9.570   -7.8540    1.0675   -8.0062    2.8176   -7.6958    1.0596   -8.1350    1.3383   -7.6948    1.5898   -7.6960    1.5914
  9.580   -7.7943    0.9794   -8.0926    2.5409   -7.6575    0.9916   -8.0775    1.2009   -7.6971    1.4630   -7.6982    1.4650
  9.590   -7.7320    0.9014   -8.1294    2.2826   -7.6154    0.9271   -8.0100    1.0799   -7.6823    1.3438   -7.6834    1.3461
  9.600   -7.6686    0.8326   -8.1288    2.0483   -7.5701    0.8669   -7.9366    0.9746   -7.6544    1.2343   -7.6555    1.2370
  9.610   -7.6053    0.7722   -8.1013    1.8397   -7.5226    0.8114   -7.8603    0.8837   -7.6171    1.1353   -7.6182    1.1383
  9.620   -7.5429    0.7191   -8.0553    1.6563   -7.4737    0.7609   -7.7835    0.8054   -7.5731    1.0468   -7.5743    1.0500
  9.630   -7.4818    0.6723   -7.9970    1.4961   -7.4241    0.7150   -7.7077    0.7381   -7.5249    0.9680   -7.5262    0.9714
  9.640   -7.4225    0.6311   -7.9312    1.3566   -7.3744    0.6735   -7.6337    0.6800   -7.4742    0.8981   -7.4755    0.9017
  9.650   -7.3650    0.5945   -7.8613    1.2353   -7.3249    0.6360   -7.5621    0.6299   -7.4222    0.8362   -7.4236    0.8398
  9.660   -7.3095    0.5619   -7.7895    1.1298   -7.2761    0.6022   -7.4933    0.5864   -7.3698    0.7812   -7.3713    0.7849
  9.670   -7.2559    0.5329   -7.7174    1.0377   -7.2282    0.5716   -7.4272    0.5485   -7.3177    0.7323   -7.3193    0.7361
  9.680   -7.2042    0.5068   -7.6461    0.9573   -7.1812    0.5439   -7.3640    0.5153   -7.2663    0.6887   -7.2680    0.6927
  9.690   -7.1544    0.4834   -7.5763    0.8867   -7.1353    0.5188   -7.3034    0.4861   -7.2159    0.6498   -7.2176    0.6538
  9.700   -7.1063    0.4622   -7.5084    0.8246   -7.0905    0.4961   -7.2455    0.4603   -7.1666    0.6150   -7.1684    0.6190
  9.710   -7.0599    0.4430   -7.4426    0.7698   -7.0469    0.4753   -7.1901    0.4374   -7.1185    0.5837   -7.1204    0.5878
  9.720   -7.0150    0.4256   -7.3791    0.7213   -7.0044    0.4564   -7.1370    0.4169   -7.0718    0.5555   -7.0736    0.5596
  9.730   -6.9716    0.4096   -7.3179    0.6781   -6.9630    0.4391   -7.0860    0.3986   -7.0263    0.5299   -7.0282    0.5341
  9.740   -6.9296    0.3950   -7.2589    0.6395   -6.9227    0.4232   -7.0370    0.3822   -6.9821    0.5068   -6.9841    0.5109
  9.750   -6.8889    0.3817   -7.2022    0.6050   -6.8834    0.4086   -6.9900    0.3673   -6.9392    0.4857   -6.9412    0.4899
  9.760   -6.8494    0.3693   -7.1475    0.5740   -6.8452    0.3952   -6.9446    0.3538   -6.8975    0.4665   -6.8995    0.4707
  9.770   -6.8110    0.3579   -7.0950    0.5460   -6.8079    0.3827   -6.9009    0.3415   -6.8569    0.4489   -6.8590    0.4531
  9.780   -6.7737    0.3474   -7.0443    0.5207   -6.7716    0.3713   -6.8587    0.3303   -6.8175    0.4328   -6.8196    0.4370
  9.790   -6.7375    0.3376   -6.9954    0.4978   -6.7362    0.3606   -6.8179    0.3201   -6.7792    0.4179   -6.7813    0.4221
  9.800   -6.7022    0.3285   -6.9483    0.4769   -6.7015    0.3507   -6.7783    0.3107   -6.7419    0.4042   -6.7440    0.4085
  9.810   -6.6677    0.3200   -6.9028    0.4578   -6.6677    0.3415   -6.7400    0.3020   -6.7055    0.3916   -6.7077    0.3958
  9.820   -6.6342    0.3121   -6.8588    0.4404   -6.6347    0.3328   -6.7029    0.2940   -6.6701    0.3798   -6.6722    0.3841
  9.830   -6.6014    0.3047   -6.8162    0.4244   -6.6024    0.3248   -6.6667    0.2865   -6.6355    0.3690   -6.6377    0.3732
  9.840   -6.5693    0.2977   -6.7750    0.4097   -6.5707    0.3172   -6.6316    0.2796   -6.6018    0.3588   -6.6040    0.3631
  9.850   -6.5380    0.2912   -6.7350    0.3961   -6.5398    0.3102   -6.5974    0.2732   -6.5688    0.3494   -6.5710    0.3536
  9.860   -6.5073    0.2850   -6.6962    0.3836   -6.5094    0.3035   -6.5641    0.2672   -6.5366    0.3405   -6.5389    0.3448
  9.870   -6.4773    0.2792   -6.6585    0.3719   -6.4797    0.2973   -6.5316    0.2616   -6.5051    0.3323   -6.5074    0.3365
  9.880   -6.4479    0.2738   -6.6219    0.3612   -6.4505    0.2913   -6.4998    0.2563   -6.4743    0.3245   -6.4765    0.3287
  9.890   -6.4190    0.2686   -6.5863    0.3511   -6.4218    0.2858   -6.4688    0.2514   -6.4441    0.3173   -6.4464    0.3215
  9.900   -6.3907    0.2637   -6.5515    0.3418   -6.3937    0.2805   -6.4385    0.2467   -6.4145    0.3104   -6.4168    0.3146
  9.910   -6.3629    0.2591   -6.5177    0.3331   -6.3661    0.2755   -6.4088    0.2423   -6.3855    0.3039   -6.3878    0.3081
  9.920   -6.3356    0.2547   -6.4847    0.3249   -6.3389    0.2707   -6.3797    0.2382   -6.3570    0.2979   -6.3593    0.3020
  9.930   -6.3087    0.2505   -6.4524    0.3173   -6.3122    0.2662   -6.3512    0.2342   -6.3291    0.2921   -6.3314    0.2962
  9.940   -6.2823    0.2465   -6.4209    0.3101   -6.2859    0.2619   -6.3232    0.2305   -6.3017    0.2866   -6.3040    0.2908
  9.950   -6.2564    0.2427   -6.3901    0.3033   -6.2601    0.2579   -6.2958    0.2270   -6.2747    0.2815   -6.2770    0.2856
  9.960   -6.2308    0.2390   -6.3599    0.2970   -6.2346    0.2540   -6.2688    0.2237   -6.2482    0.2765   -6.2505    0.2807
  9.970   -6.2056    0.2355   -6.3304    0.2910   -6.2095    0.2503   -6.2423    0.2205   -6.2221    0.2719   -6.2244    0.2760
  9.980   -6.1808    0.2322   -6.3015    0.2853   -6.1848    0.2467   -6.2163    0.2174   -6.1964    0.2674   -6.1988    0.2715
  9.990   -6.1563    0.2290   -6.2731    0.2799   -6.1604    0.2433   -6.1907    0.2145   -6.1712    0.2632   -6.1735    0.2673
 10.000   -6.1322    0.2260   -6.2453    0.2749   -6.1363    0.2401   -6.1655    0.2117   -6.1463    0.2592   -6.1486    0.2632
