# Macroscopic dielectric function obtained with the BS equation.
#  RPA L0 with KS energies and KS wavefunctions     LOCAL FIELD EFFECTS INCLUDED
# RESONANT-ONLY calculation
# Coulomb term constructed with full W(G1,G2)
# Scissor operator energy =  0.8000 [eV]
# Tolerance = -0.0010 0.0000
# npweps  = 113
# npwwfn  = 259
# nbands  = 8
# loband  = 2
# nkibz   = 3
# nkbz    = 8
# Lorentzian broadening =  0.0001 [eV]
# List of q-points for the optical limit:
# q =  0.938821, 0.000000, 0.000000, [Reduced coords] 
# q =  0.000000, 0.938821, 0.000000, [Reduced coords] 
# q =  0.000000, 0.000000, 0.938821, [Reduced coords] 
# q =  0.000000, 0.813043, 0.813043, [Reduced coords] 
# q =  0.813043, 0.000000, 0.813043, [Reduced coords] 
# q =  0.813043, 0.813043, 0.000000, [Reduced coords] 
# omega [eV]    RE(eps(q=1)) IM(eps(q=1) RE(eps(q=2) ) ... 
  0.000   55.7576    0.0000   55.7036    0.0000   55.7149    0.0000   55.7205    0.0000   55.8117    0.0000   55.8197    0.0000
  0.010   55.7582    0.0087   55.7042    0.0093   55.7155    0.0093   55.7211    0.0087   55.8122    0.0094   55.8203    0.0094
  0.020   55.7599    0.0174   55.7058    0.0186   55.7171    0.0185   55.7227    0.0174   55.8139    0.0188   55.8220    0.0188
  0.030   55.7627    0.0261   55.7086    0.0278   55.7199    0.0278   55.7256    0.0260   55.8167    0.0282   55.8248    0.0283
  0.040   55.7666    0.0348   55.7126    0.0371   55.7239    0.0371   55.7295    0.0347   55.8207    0.0376   55.8287    0.0377
  0.050   55.7717    0.0435   55.7176    0.0464   55.7289    0.0464   55.7346    0.0434   55.8258    0.0470   55.8338    0.0471
  0.060   55.7779    0.0523   55.7238    0.0557   55.7351    0.0556   55.7408    0.0521   55.8320    0.0565   55.8400    0.0566
  0.070   55.7852    0.0610   55.7311    0.0650   55.7424    0.0649   55.7481    0.0608   55.8393    0.0659   55.8474    0.0660
  0.080   55.7937    0.0697   55.7395    0.0743   55.7509    0.0742   55.7565    0.0695   55.8478    0.0753   55.8559    0.0755
  0.090   55.8033    0.0785   55.7491    0.0837   55.7604    0.0835   55.7661    0.0782   55.8574    0.0848   55.8655    0.0850
  0.100   55.8140    0.0872   55.7598    0.0930   55.7711    0.0929   55.7768    0.0870   55.8682    0.0942   55.8762    0.0944
  0.110   55.8258    0.0960   55.7716    0.1023   55.7829    0.1022   55.7886    0.0957   55.8800    0.1037   55.8881    0.1039
  0.120   55.8388    0.1048   55.7846    0.1117   55.7959    0.1115   55.8016    0.1045   55.8931    0.1132   55.9011    0.1134
  0.130   55.8529    0.1136   55.7986    0.1210   55.8100    0.1209   55.8157    0.1132   55.9072    0.1227   55.9153    0.1229
  0.140   55.8682    0.1224   55.8139    0.1304   55.8252    0.1303   55.8310    0.1220   55.9225    0.1322   55.9306    0.1325
  0.150   55.8846    0.1312   55.8302    0.1398   55.8415    0.1396   55.8474    0.1308   55.9389    0.1417   55.9470    0.1420
  0.160   55.9021    0.1400   55.8477    0.1492   55.8590    0.1491   55.8649    0.1396   55.9565    0.1512   55.9646    0.1516
  0.170   55.9208    0.1489   55.8663    0.1587   55.8777    0.1585   55.8836    0.1484   55.9753    0.1608   55.9833    0.1611
  0.180   55.9406    0.1577   55.8861    0.1681   55.8975    0.1679   55.9034    0.1573   55.9951    0.1704   56.0032    0.1707
  0.190   55.9616    0.1666   55.9070    0.1776   55.9184    0.1774   55.9243    0.1661   56.0162    0.1800   56.0243    0.1804
  0.200   55.9837    0.1755   55.9291    0.1871   55.9405    0.1869   55.9465    0.1750   56.0384    0.1896   56.0464    0.1900
  0.210   56.0070    0.1845   55.9523    0.1966   55.9637    0.1964   55.9697    0.1839   56.0617    0.1993   56.0698    0.1997
  0.220   56.0315    0.1934   55.9767    0.2062   55.9881    0.2059   55.9942    0.1929   56.0862    0.2089   56.0943    0.2094
  0.230   56.0571    0.2024   56.0022    0.2157   56.0136    0.2155   56.0197    0.2018   56.1119    0.2186   56.1200    0.2191
  0.240   56.0838    0.2114   56.0289    0.2253   56.0403    0.2250   56.0465    0.2108   56.1387    0.2283   56.1468    0.2288
  0.250   56.1118    0.2204   56.0568    0.2350   56.0682    0.2347   56.0744    0.2198   56.1668    0.2381   56.1748    0.2386
  0.260   56.1409    0.2295   56.0858    0.2446   56.0972    0.2443   56.1035    0.2289   56.1959    0.2479   56.2040    0.2484
  0.270   56.1712    0.2386   56.1160    0.2543   56.1275    0.2540   56.1338    0.2379   56.2263    0.2577   56.2344    0.2583
  0.280   56.2026    0.2477   56.1474    0.2640   56.1588    0.2637   56.1652    0.2470   56.2579    0.2675   56.2660    0.2681
  0.290   56.2353    0.2569   56.1800    0.2738   56.1914    0.2734   56.1978    0.2561   56.2906    0.2774   56.2987    0.2780
  0.300   56.2691    0.2660   56.2137    0.2835   56.2252    0.2832   56.2316    0.2653   56.3245    0.2873   56.3326    0.2880
  0.310   56.3041    0.2753   56.2487    0.2934   56.2601    0.2930   56.2666    0.2745   56.3596    0.2973   56.3677    0.2979
  0.320   56.3404    0.2845   56.2848    0.3032   56.2963    0.3028   56.3028    0.2837   56.3960    0.3073   56.4041    0.3079
  0.330   56.3778    0.2938   56.3221    0.3131   56.3336    0.3127   56.3402    0.2930   56.4335    0.3173   56.4416    0.3180
  0.340   56.4164    0.3031   56.3606    0.3230   56.3721    0.3226   56.3789    0.3023   56.4722    0.3274   56.4803    0.3281
  0.350   56.4563    0.3125   56.4004    0.3330   56.4119    0.3326   56.4187    0.3116   56.5122    0.3375   56.5203    0.3382
  0.360   56.4973    0.3219   56.4413    0.3430   56.4528    0.3426   56.4597    0.3210   56.5533    0.3476   56.5615    0.3484
  0.370   56.5396    0.3313   56.4835    0.3531   56.4950    0.3526   56.5020    0.3304   56.5957    0.3578   56.6039    0.3586
  0.380   56.5831    0.3408   56.5269    0.3632   56.5384    0.3627   56.5454    0.3399   56.6394    0.3681   56.6475    0.3689
  0.390   56.6279    0.3504   56.5715    0.3733   56.5831    0.3729   56.5902    0.3494   56.6842    0.3784   56.6924    0.3792
  0.400   56.6738    0.3599   56.6174    0.3835   56.6289    0.3831   56.6361    0.3589   56.7303    0.3887   56.7385    0.3895
  0.410   56.7211    0.3696   56.6645    0.3938   56.6761    0.3933   56.6833    0.3685   56.7777    0.3991   56.7859    0.4000
  0.420   56.7696    0.3792   56.7128    0.4041   56.7244    0.4036   56.7318    0.3782   56.8263    0.4096   56.8345    0.4104
  0.430   56.8193    0.3889   56.7624    0.4144   56.7740    0.4139   56.7815    0.3879   56.8762    0.4200   56.8844    0.4209
  0.440   56.8703    0.3987   56.8133    0.4248   56.8249    0.4243   56.8325    0.3976   56.9273    0.4306   56.9355    0.4315
  0.450   56.9226    0.4085   56.8654    0.4353   56.8771    0.4348   56.8847    0.4074   56.9798    0.4412   56.9879    0.4421
  0.460   56.9761    0.4184   56.9189    0.4458   56.9305    0.4453   56.9382    0.4173   57.0335    0.4519   57.0417    0.4528
  0.470   57.0310    0.4284   56.9736    0.4564   56.9852    0.4558   56.9930    0.4272   57.0885    0.4626   57.0967    0.4636
  0.480   57.0871    0.4383   57.0295    0.4670   57.0412    0.4664   57.0491    0.4372   57.1448    0.4734   57.1530    0.4744
  0.490   57.1446    0.4484   57.0868    0.4777   57.0985    0.4771   57.1066    0.4472   57.2024    0.4842   57.2106    0.4852
  0.500   57.2033    0.4585   57.1454    0.4885   57.1572    0.4879   57.1653    0.4573   57.2613    0.4951   57.2695    0.4962
  0.510   57.2634    0.4687   57.2053    0.4993   57.2171    0.4987   57.2253    0.4674   57.3215    0.5061   57.3297    0.5072
  0.520   57.3248    0.4789   57.2666    0.5102   57.2783    0.5096   57.2867    0.4776   57.3831    0.5171   57.3913    0.5182
  0.530   57.3875    0.4892   57.3291    0.5211   57.3409    0.5205   57.3494    0.4879   57.4460    0.5283   57.4542    0.5294
  0.540   57.4516    0.4996   57.3930    0.5322   57.4049    0.5315   57.4134    0.4983   57.5102    0.5394   57.5185    0.5406
  0.550   57.5171    0.5100   57.4583    0.5433   57.4701    0.5426   57.4788    0.5087   57.5759    0.5507   57.5841    0.5518
  0.560   57.5839    0.5205   57.5249    0.5544   57.5368    0.5538   57.5456    0.5192   57.6428    0.5620   57.6511    0.5632
  0.570   57.6520    0.5311   57.5929    0.5657   57.6048    0.5650   57.6137    0.5297   57.7112    0.5734   57.7195    0.5746
  0.580   57.7216    0.5417   57.6623    0.5770   57.6741    0.5763   57.6832    0.5403   57.7809    0.5849   57.7892    0.5861
  0.590   57.7925    0.5524   57.7330    0.5884   57.7449    0.5877   57.7541    0.5510   57.8521    0.5965   57.8604    0.5977
  0.600   57.8649    0.5632   57.8052    0.5999   57.8171    0.5992   57.8264    0.5618   57.9246    0.6081   57.9329    0.6094
  0.610   57.9386    0.5741   57.8787    0.6114   57.8907    0.6107   57.9001    0.5727   57.9986    0.6199   58.0069    0.6211
  0.620   58.0138    0.5851   57.9537    0.6231   57.9657    0.6223   57.9752    0.5836   58.0740    0.6317   58.0823    0.6330
  0.630   58.0904    0.5961   58.0301    0.6348   58.0421    0.6341   58.0518    0.5946   58.1508    0.6436   58.1592    0.6449
  0.640   58.1685    0.6072   58.1079    0.6466   58.1199    0.6459   58.1298    0.6057   58.2291    0.6556   58.2374    0.6569
  0.650   58.2480    0.6184   58.1872    0.6585   58.1993    0.6578   58.2093    0.6169   58.3088    0.6677   58.3172    0.6690
  0.660   58.3290    0.6297   58.2680    0.6705   58.2800    0.6697   58.2902    0.6281   58.3900    0.6798   58.3984    0.6812
  0.670   58.4114    0.6411   58.3502    0.6826   58.3623    0.6818   58.3726    0.6395   58.4727    0.6921   58.4811    0.6935
  0.680   58.4954    0.6526   58.4339    0.6948   58.4461    0.6940   58.4565    0.6510   58.5569    0.7045   58.5653    0.7059
  0.690   58.5809    0.6641   58.5192    0.7071   58.5313    0.7063   58.5420    0.6625   58.6426    0.7170   58.6510    0.7184
  0.700   58.6678    0.6758   58.6059    0.7195   58.6181    0.7187   58.6289    0.6742   58.7298    0.7295   58.7383    0.7310
  0.710   58.7563    0.6875   58.6942    0.7320   58.7063    0.7311   58.7173    0.6859   58.8186    0.7422   58.8270    0.7437
  0.720   58.8464    0.6994   58.7840    0.7446   58.7962    0.7437   58.8073    0.6977   58.9089    0.7550   58.9173    0.7565
  0.730   58.9380    0.7114   58.8753    0.7573   58.8876    0.7564   58.8989    0.7097   59.0008    0.7679   59.0092    0.7694
  0.740   59.0312    0.7234   58.9682    0.7701   58.9805    0.7692   58.9920    0.7217   59.0942    0.7809   59.1027    0.7824
  0.750   59.1260    0.7356   59.0627    0.7831   59.0750    0.7821   59.0867    0.7339   59.1892    0.7940   59.1977    0.7956
  0.760   59.2223    0.7479   59.1588    0.7961   59.1712    0.7952   59.1831    0.7461   59.2859    0.8073   59.2944    0.8089
  0.770   59.3203    0.7603   59.2565    0.8093   59.2689    0.8083   59.2810    0.7585   59.3841    0.8206   59.3927    0.8222
  0.780   59.4199    0.7728   59.3559    0.8225   59.3682    0.8216   59.3805    0.7710   59.4840    0.8341   59.4926    0.8357
  0.790   59.5212    0.7854   59.4568    0.8359   59.4693    0.8350   59.4817    0.7836   59.5856    0.8477   59.5941    0.8494
  0.800   59.6241    0.7981   59.5595    0.8495   59.5719    0.8485   59.5846    0.7963   59.6888    0.8615   59.6974    0.8631
  0.810   59.7287    0.8110   59.6638    0.8631   59.6762    0.8621   59.6891    0.8092   59.7937    0.8753   59.8023    0.8770
  0.820   59.8350    0.8240   59.7698    0.8769   59.7823    0.8759   59.7954    0.8222   59.9003    0.8893   59.9089    0.8910
  0.830   59.9430    0.8371   59.8774    0.8908   59.8900    0.8898   59.9033    0.8353   60.0086    0.9035   60.0172    0.9052
  0.840   60.0527    0.8503   59.9869    0.9049   59.9994    0.9039   60.0130    0.8485   60.1187    0.9177   60.1273    0.9195
  0.850   60.1642    0.8637   60.0980    0.9191   60.1106    0.9180   60.1244    0.8618   60.2305    0.9321   60.2391    0.9339
  0.860   60.2775    0.8772   60.2110    0.9334   60.2236    0.9324   60.2376    0.8753   60.3441    0.9467   60.3527    0.9485
  0.870   60.3925    0.8909   60.3257    0.9479   60.3383    0.9468   60.3526    0.8890   60.4594    0.9614   60.4681    0.9632
  0.880   60.5093    0.9047   60.4421    0.9625   60.4549    0.9614   60.4693    0.9028   60.5766    0.9763   60.5853    0.9781
  0.890   60.6280    0.9186   60.5605    0.9773   60.5732    0.9762   60.5879    0.9167   60.6956    0.9913   60.7043    0.9931
  0.900   60.7485    0.9327   60.6806    0.9922   60.6934    0.9911   60.7084    0.9307   60.8164    1.0065   60.8252    1.0083
  0.910   60.8708    0.9469   60.8026    1.0073   60.8154    1.0062   60.8307    0.9450   60.9392    1.0218   60.9479    1.0237
  0.920   60.9951    0.9613   60.9265    1.0225   60.9393    1.0214   60.9548    0.9593   61.0638    1.0373   61.0725    1.0392
  0.930   61.1212    0.9758   61.0523    1.0380   61.0652    1.0368   61.0809    0.9739   61.1903    1.0529   61.1990    1.0549
  0.940   61.2493    0.9905   61.1800    1.0535   61.1929    1.0524   61.2089    0.9886   61.3187    1.0688   61.3275    1.0707
  0.950   61.3793    1.0054   61.3096    1.0693   61.3226    1.0681   61.3389    1.0034   61.4491    1.0848   61.4579    1.0867
  0.960   61.5113    1.0204   61.4412    1.0852   61.4542    1.0841   61.4708    1.0184   61.5815    1.1010   61.5903    1.1030
  0.970   61.6453    1.0356   61.5748    1.1013   61.5878    1.1002   61.6047    1.0336   61.7159    1.1173   61.7247    1.1194
  0.980   61.7813    1.0510   61.7103    1.1176   61.7234    1.1164   61.7406    1.0490   61.8523    1.1339   61.8611    1.1359
  0.990   61.9193    1.0666   61.8480    1.1341   61.8611    1.1329   61.8786    1.0645   61.9907    1.1507   61.9996    1.1527
  1.000   62.0594    1.0823   61.9876    1.1508   62.0008    1.1496   62.0186    1.0803   62.1312    1.1676   62.1401    1.1697
  1.010   62.2016    1.0982   62.1294    1.1676   62.1426    1.1664   62.1607    1.0962   62.2738    1.1847   62.2827    1.1868
  1.020   62.3459    1.1143   62.2733    1.1847   62.2865    1.1835   62.3049    1.1123   62.4185    1.2021   62.4275    1.2042
  1.030   62.4923    1.1306   62.4193    1.2020   62.4326    1.2007   62.4513    1.1286   62.5654    1.2196   62.5744    1.2218
  1.040   62.6409    1.1471   62.5674    1.2194   62.5808    1.2182   62.5998    1.1451   62.7145    1.2374   62.7235    1.2396
  1.050   62.7917    1.1638   62.7178    1.2371   62.7312    1.2359   62.7506    1.1618   62.8657    1.2554   62.8747    1.2576
  1.060   62.9447    1.1808   62.8703    1.2550   62.8838    1.2537   62.9035    1.1787   63.0192    1.2736   63.0282    1.2758
  1.070   63.1000    1.1979   63.0251    1.2731   63.0386    1.2719   63.0587    1.1958   63.1750    1.2920   63.1840    1.2942
  1.080   63.2576    1.2152   63.1822    1.2915   63.1957    1.2902   63.2162    1.2132   63.3330    1.3107   63.3421    1.3129
  1.090   63.4174    1.2328   63.3416    1.3101   63.3552    1.3088   63.3760    1.2307   63.4933    1.3296   63.5024    1.3318
  1.100   63.5796    1.2506   63.5033    1.3289   63.5169    1.3276   63.5381    1.2485   63.6560    1.3487   63.6652    1.3510
  1.110   63.7442    1.2686   63.6674    1.3480   63.6810    1.3466   63.7026    1.2665   63.8211    1.3681   63.8303    1.3704
  1.120   63.9112    1.2868   63.8338    1.3673   63.8475    1.3659   63.8695    1.2848   63.9886    1.3878   63.9978    1.3901
  1.130   64.0806    1.3053   64.0027    1.3868   64.0165    1.3855   64.0389    1.3033   64.1585    1.4077   64.1677    1.4100
  1.140   64.2525    1.3241   64.1741    1.4066   64.1879    1.4053   64.2107    1.3220   64.3309    1.4278   64.3402    1.4302
  1.150   64.4268    1.3431   64.3479    1.4267   64.3618    1.4254   64.3850    1.3410   64.5059    1.4483   64.5151    1.4506
  1.160   64.6038    1.3623   64.5243    1.4471   64.5382    1.4457   64.5618    1.3603   64.6833    1.4690   64.6926    1.4714
  1.170   64.7833    1.3818   64.7032    1.4677   64.7172    1.4663   64.7412    1.3798   64.8634    1.4900   64.8727    1.4924
  1.180   64.9654    1.4016   64.8847    1.4886   64.8988    1.4872   64.9233    1.3996   65.0461    1.5113   65.0554    1.5137
  1.190   65.1501    1.4217   65.0689    1.5098   65.0830    1.5084   65.1079    1.4197   65.2314    1.5328   65.2407    1.5353
  1.200   65.3375    1.4420   65.2557    1.5313   65.2699    1.5299   65.2953    1.4400   65.4194    1.5547   65.4288    1.5572
  1.210   65.5277    1.4626   65.4453    1.5531   65.4595    1.5517   65.4854    1.4607   65.6102    1.5769   65.6196    1.5794
  1.220   65.7206    1.4836   65.6376    1.5752   65.6519    1.5738   65.6782    1.4816   65.8037    1.5994   65.8131    1.6019
  1.230   65.9163    1.5048   65.8327    1.5976   65.8470    1.5962   65.8739    1.5029   66.0000    1.6222   66.0095    1.6248
  1.240   66.1149    1.5263   66.0307    1.6204   66.0450    1.6189   66.0724    1.5244   66.1993    1.6454   66.2088    1.6479
  1.250   66.3164    1.5482   66.2315    1.6435   66.2459    1.6420   66.2738    1.5463   66.4014    1.6689   66.4109    1.6714
  1.260   66.5208    1.5704   66.4352    1.6669   66.4497    1.6654   66.4781    1.5685   66.6064    1.6927   66.6160    1.6953
  1.270   66.7282    1.5929   66.6419    1.6906   66.6565    1.6891   66.6854    1.5910   66.8144    1.7169   66.8240    1.7195
  1.280   66.9385    1.6157   66.8516    1.7148   66.8662    1.7132   66.8957    1.6139   67.0255    1.7415   67.0352    1.7441
  1.290   67.1520    1.6389   67.0644    1.7392   67.0791    1.7377   67.1091    1.6371   67.2397    1.7664   67.2493    1.7691
  1.300   67.3686    1.6625   67.2803    1.7641   67.2950    1.7625   67.3256    1.6607   67.4570    1.7917   67.4667    1.7944
  1.310   67.5884    1.6864   67.4993    1.7893   67.5141    1.7878   67.5453    1.6846   67.6774    1.8174   67.6872    1.8201
  1.320   67.8113    1.7107   67.7216    1.8149   67.7364    1.8134   67.7682    1.7089   67.9011    1.8435   67.9109    1.8462
  1.330   68.0376    1.7353   67.9471    1.8409   67.9620    1.8394   67.9944    1.7336   68.1281    1.8701   68.1379    1.8727
  1.340   68.2671    1.7604   68.1759    1.8674   68.1909    1.8658   68.2239    1.7587   68.3584    1.8970   68.3683    1.8997
  1.350   68.5001    1.7858   68.4080    1.8942   68.4231    1.8926   68.4567    1.7842   68.5921    1.9243   68.6020    1.9270
  1.360   68.7364    1.8117   68.6436    1.9215   68.6588    1.9199   68.6930    1.8101   68.8293    1.9521   68.8392    1.9549
  1.370   68.9763    1.8380   68.8827    1.9492   68.8979    1.9476   68.9328    1.8364   69.0699    1.9804   69.0799    1.9831
  1.380   69.2197    1.8647   69.1253    1.9774   69.1405    1.9757   69.1762    1.8632   69.3142    2.0091   69.3242    2.0118
  1.390   69.4667    1.8918   69.3714    2.0060   69.3868    2.0043   69.4231    1.8904   69.5620    2.0382   69.5720    2.0410
  1.400   69.7174    1.9194   69.6213    2.0351   69.6367    2.0334   69.6738    1.9180   69.8135    2.0679   69.8236    2.0707
  1.410   69.9718    1.9475   69.8748    2.0646   69.8903    2.0630   69.9281    1.9461   70.0688    2.0980   70.0789    2.1009
  1.420   70.2300    1.9761   70.1322    2.0947   70.1478    2.0931   70.1863    1.9747   70.3279    2.1287   70.3381    2.1315
  1.430   70.4921    2.0051   70.3934    2.1253   70.4090    2.1236   70.4483    2.0038   70.5909    2.1599   70.6011    2.1627
  1.440   70.7581    2.0346   70.6584    2.1564   70.6742    2.1547   70.7142    2.0334   70.8578    2.1916   70.8680    2.1944
  1.450   71.0281    2.0647   70.9275    2.1880   70.9433    2.1863   70.9842    2.0635   71.1287    2.2239   71.1390    2.2267
  1.460   71.3022    2.0952   71.2006    2.2202   71.2165    2.2185   71.2582    2.0942   71.4037    2.2567   71.4141    2.2596
  1.470   71.5804    2.1263   71.4779    2.2529   71.4939    2.2512   71.5364    2.1253   71.6829    2.2901   71.6933    2.2930
  1.480   71.8629    2.1580   71.7594    2.2863   71.7754    2.2846   71.8187    2.1571   71.9663    2.3241   71.9768    2.3270
  1.490   72.1496    2.1902   72.0451    2.3202   72.0612    2.3185   72.1054    2.1894   72.2540    2.3587   72.2645    2.3616
  1.500   72.4407    2.2230   72.3352    2.3547   72.3514    2.3530   72.3965    2.2222   72.5462    2.3939   72.5567    2.3968
  1.510   72.7363    2.2564   72.6297    2.3898   72.6460    2.3881   72.6920    2.2557   72.8428    2.4297   72.8534    2.4327
  1.520   73.0364    2.2904   72.9287    2.4256   72.9451    2.4239   72.9921    2.2898   73.1439    2.4663   73.1546    2.4692
  1.530   73.3412    2.3251   73.2324    2.4620   73.2489    2.4603   73.2968    2.3246   73.4497    2.5034   73.4605    2.5064
  1.540   73.6506    2.3604   73.5407    2.4991   73.5573    2.4974   73.6062    2.3599   73.7603    2.5413   73.7711    2.5443
  1.550   73.9649    2.3963   73.8539    2.5370   73.8705    2.5352   73.9204    2.3960   74.0757    2.5799   74.0865    2.5829
  1.560   74.2840    2.4330   74.1719    2.5755   74.1886    2.5737   74.2395    2.4327   74.3960    2.6192   74.4068    2.6222
  1.570   74.6082    2.4703   74.4948    2.6147   74.5117    2.6130   74.5636    2.4702   74.7213    2.6593   74.7322    2.6623
  1.580   74.9374    2.5084   74.8229    2.6547   74.8398    2.6530   74.8929    2.5084   75.0517    2.7001   75.0627    2.7032
  1.590   75.2719    2.5472   75.1561    2.6955   75.1731    2.6937   75.2273    2.5473   75.3873    2.7418   75.3984    2.7448
  1.600   75.6116    2.5868   75.4945    2.7370   75.5117    2.7353   75.5670    2.5870   75.7283    2.7842   75.7394    2.7872
  1.610   75.9567    2.6271   75.8384    2.7794   75.8556    2.7776   75.9121    2.6275   76.0747    2.8275   76.0859    2.8305
  1.620   76.3074    2.6683   76.1877    2.8226   76.2051    2.8209   76.2627    2.6687   76.4266    2.8716   76.4379    2.8747
  1.630   76.6637    2.7103   76.5427    2.8667   76.5601    2.8649   76.6190    2.7109   76.7842    2.9167   76.7955    2.9197
  1.640   77.0257    2.7531   76.9033    2.9117   76.9209    2.9099   76.9810    2.7538   77.1476    2.9626   77.1590    2.9657
  1.650   77.3936    2.7968   77.2698    2.9576   77.2875    2.9558   77.3489    2.7977   77.5168    3.0095   77.5283    3.0126
  1.660   77.7674    2.8414   77.6423    3.0044   77.6600    3.0026   77.7228    2.8425   77.8921    3.0573   77.9036    3.0604
  1.670   78.1474    2.8870   78.0208    3.0522   78.0387    3.0504   78.1027    2.8882   78.2735    3.1062   78.2851    3.1092
  1.680   78.5337    2.9335   78.4056    3.1009   78.4235    3.0992   78.4890    2.9349   78.6612    3.1560   78.6729    3.1591
  1.690   78.9263    2.9810   78.7966    3.1508   78.8147    3.1490   78.8816    2.9825   79.0553    3.2070   79.0670    3.2100
  1.700   79.3254    3.0295   79.1942    3.2016   79.2124    3.1998   79.2808    3.0312   79.4559    3.2590   79.4677    3.2620
  1.710   79.7312    3.0790   79.5984    3.2536   79.6168    3.2518   79.6866    3.0809   79.8632    3.3121   79.8752    3.3151
  1.720   80.1438    3.1296   80.0094    3.3066   80.0278    3.3048   80.0992    3.1318   80.2774    3.3663   80.2894    3.3694
  1.730   80.5634    3.1814   80.4273    3.3609   80.4459    3.3591   80.5188    3.1837   80.6986    3.4218   80.7107    3.4249
  1.740   80.9900    3.2343   80.8523    3.4163   80.8710    3.4145   80.9455    3.2368   81.1269    3.4785   81.1391    3.4815
  1.750   81.4240    3.2883   81.2845    3.4729   81.3033    3.4711   81.3795    3.2911   81.5625    3.5364   81.5748    3.5395
  1.760   81.8654    3.3436   81.7241    3.5308   81.7431    3.5290   81.8210    3.3466   82.0057    3.5957   82.0180    3.5987
  1.770   82.3144    3.4001   82.1713    3.5900   82.1904    3.5883   82.2701    3.4034   82.4564    3.6562   82.4689    3.6593
  1.780   82.7712    3.4580   82.6263    3.6506   82.6455    3.6488   82.7270    3.4615   82.9150    3.7182   82.9276    3.7212
  1.790   83.2360    3.5172   83.0892    3.7125   83.1085    3.7108   83.1919    3.5209   83.3817    3.7816   83.3943    3.7846
  1.800   83.7090    3.5777   83.5602    3.7759   83.5796    3.7742   83.6649    3.5818   83.8565    3.8465   83.8693    3.8495
  1.810   84.1903    3.6397   84.0395    3.8408   84.0591    3.8390   84.1464    3.6440   84.3398    3.9129   84.3526    3.9159
  1.820   84.6802    3.7032   84.5273    3.9072   84.5471    3.9054   84.6364    3.7078   84.8316    3.9809   84.8446    3.9839
  1.830   85.1789    3.7681   85.0239    3.9752   85.0438    3.9734   85.1352    3.7731   85.3323    4.0505   85.3454    4.0535
  1.840   85.6866    3.8347   85.5294    4.0448   85.5495    4.0430   85.6430    3.8400   85.8420    4.1217   85.8552    4.1247
  1.850   86.2034    3.9029   86.0441    4.1161   86.0643    4.1144   86.1600    3.9085   86.3610    4.1948   86.3743    4.1977
  1.860   86.7298    3.9728   86.5682    4.1891   86.5885    4.1874   86.6865    3.9787   86.8895    4.2696   86.9029    4.2725
  1.870   87.2658    4.0444   87.1019    4.2640   87.1223    4.2623   87.2226    4.0507   87.4277    4.3463   87.4412    4.3492
  1.880   87.8117    4.1178   87.6454    4.3407   87.6661    4.3390   87.7688    4.1245   87.9759    4.4249   87.9896    4.4278
  1.890   88.3679    4.1931   88.1991    4.4194   88.2199    4.4177   88.3251    4.2002   88.5343    4.5055   88.5481    4.5084
  1.900   88.9344    4.2703   88.7632    4.5000   88.7842    4.4983   88.8919    4.2778   89.1033    4.5881   89.1172    4.5910
  1.910   89.5118    4.3495   89.3379    4.5827   89.3591    4.5811   89.4694    4.3575   89.6830    4.6729   89.6971    4.6758
  1.920   90.1001    4.4308   89.9236    4.6676   89.9449    4.6660   90.0580    4.4392   90.2738    4.7599   90.2880    4.7627
  1.930   90.6997    4.5142   90.5206    4.7547   90.5420    4.7531   90.6579    4.5231   90.8760    4.8492   90.8903    4.8520
  1.940   91.3110    4.5998   91.1290    4.8441   91.1507    4.8425   91.2694    4.6093   91.4899    4.9409   91.5043    4.9436
  1.950   91.9342    4.6878   91.7493    4.9359   91.7712    4.9343   91.8929    4.6978   92.1157    5.0350   92.1303    5.0377
  1.960   92.5696    4.7782   92.3818    5.0302   92.4039    5.0286   92.5286    4.7887   92.7539    5.1317   92.7687    5.1344
  1.970   93.2176    4.8710   93.0269    5.1270   93.0491    5.1255   93.1770    4.8821   93.4047    5.2311   93.4197    5.2337
  1.980   93.8786    4.9664   93.6848    5.2265   93.7071    5.2250   93.8384    4.9781   94.0686    5.3332   94.0837    5.3358
  1.990   94.5529    5.0645   94.3559    5.3288   94.3785    5.3273   94.5131    5.0768   94.7459    5.4381   94.7612    5.4407
  2.000   95.2410    5.1654   95.0406    5.4339   95.0634    5.4325   95.2015    5.1783   95.4369    5.5461   95.4524    5.5485
  2.010   95.9431    5.2691   95.7394    5.5421   95.7624    5.5406   95.9040    5.2828   96.1422    5.6571   96.1578    5.6595
  2.020   96.6597    5.3759   96.4526    5.6533   96.4757    5.6519   96.6211    5.3903   96.8620    5.7713   96.8778    5.7737
  2.030   97.3913    5.4858   97.1806    5.7678   97.2039    5.7664   97.3532    5.5009   97.5968    5.8888   97.6129    5.8912
  2.040   98.1383    5.5990   97.9239    5.8856   97.9475    5.8843   98.1007    5.6148   98.3472    6.0098   98.3634    6.0121
  2.050   98.9011    5.7155   98.6829    6.0069   98.7067    6.0057   98.8640    5.7322   99.1135    6.1345   99.1299    6.1367
  2.060   99.6803    5.8356   99.4582    6.1319   99.4822    6.1307   99.6438    5.8531   99.8962    6.2629   99.9129    6.2650
  2.070  100.4763    5.9593  100.2502    6.2607  100.2744    6.2595  100.4404    5.9777  100.6959    6.3952  100.7127    6.3973
  2.080  101.2897    6.0868  101.0594    6.3934  101.0839    6.3922  101.2544    6.1061  101.5130    6.5316  101.5301    6.5336
  2.090  102.1210    6.2184  101.8865    6.5302  101.9112    6.5291  102.0864    6.2386  102.3482    6.6722  102.3655    6.6741
  2.100  102.9708    6.3541  102.7319    6.6713  102.7568    6.6702  102.9370    6.3754  103.2019    6.8173  103.2195    6.8191
  2.110  103.8397    6.4941  103.5962    6.8169  103.6214    6.8159  103.8066    6.5165  104.0749    6.9670  104.0927    6.9687
  2.120  104.7283    6.6386  104.4801    6.9671  104.5055    6.9662  104.6960    6.6621  104.9677    7.1215  104.9858    7.1232
  2.130  105.6373    6.7879  105.3842    7.1223  105.4099    7.1214  105.6058    6.8126  105.8810    7.2811  105.8993    7.2827
  2.140  106.5673    6.9422  106.3092    7.2825  106.3351    7.2817  106.5367    6.9681  106.8154    7.4460  106.8341    7.4475
  2.150  107.5190    7.1016  107.2557    7.4481  107.2820    7.4473  107.4894    7.1288  107.7717    7.6164  107.7907    7.6177
  2.160  108.4933    7.2664  108.2246    7.6192  108.2511    7.6185  108.4646    7.2949  108.7507    7.7925  108.7699    7.7938
  2.170  109.4908    7.4369  109.2166    7.7962  109.2433    7.7956  109.4632    7.4668  109.7530    7.9747  109.7726    7.9758
  2.180  110.5124    7.6133  110.2324    7.9792  110.2595    7.9787  110.4859    7.6447  110.7796    8.1632  110.7995    8.1642
  2.190  111.5589    7.7959  111.2730    8.1687  111.3003    8.1682  111.5336    7.8289  111.8312    8.3583  111.8515    8.3592
  2.200  112.6312    7.9850  112.3392    8.3648  112.3668    8.3645  112.6072    8.0197  112.9089    8.5604  112.9295    8.5612
  2.210  113.7304    8.1809  113.4319    8.5680  113.4599    8.5678  113.7076    8.2173  114.0134    8.7698  114.0344    8.7704
  2.220  114.8572    8.3841  114.5521    8.7786  114.5804    8.7784  114.8358    8.4223  115.1459    8.9868  115.1673    8.9872
  2.230  116.0128    8.5947  115.7009    8.9969  115.7295    8.9968  115.9929    8.6348  116.3074    9.2118  116.3291    9.2121
  2.240  117.1983    8.8132  116.8792    9.2233  116.9082    9.2233  117.1799    8.8554  117.4988    9.4453  117.5210    9.4454
  2.250  118.4148    9.0401  118.0883    9.4582  118.1176    9.4584  118.3980    9.0844  118.7215    9.6876  118.7441    9.6876
  2.260  119.6634    9.2757  119.3293    9.7022  119.3589    9.7025  119.6484    9.3222  119.9765    9.9393  119.9996    9.9390
  2.270  120.9456    9.5205  120.6034    9.9556  120.6334    9.9560  120.9324    9.5694  121.2652   10.2008  121.2888   10.2003
  2.280  122.2624    9.7750  121.9120   10.2190  121.9424   10.2196  122.2512    9.8264  122.5889   10.4726  122.6129   10.4720
  2.290  123.6155   10.0397  123.2564   10.4929  123.2872   10.4936  123.6063   10.0938  123.9490   10.7554  123.9735   10.7545
  2.300  125.0062   10.3153  124.6381   10.7778  124.6693   10.7787  124.9991   10.3721  125.3470   11.0496  125.3720   11.0485
  2.310  126.4361   10.6022  126.0586   11.0745  126.0902   11.0755  126.4313   10.6620  126.7844   11.3561  126.8100   11.3547
  2.320  127.9068   10.9012  127.5196   11.3835  127.5516   11.3847  127.9044   10.9640  128.2629   11.6753  128.2891   11.6737
  2.330  129.4201   11.2129  129.0227   11.7055  129.0551   11.7069  129.4202   11.2790  129.7842   12.0082  129.8110   12.0063
  2.340  130.9777   11.5380  130.5697   12.0414  130.6026   12.0430  130.9806   11.6077  131.3502   12.3554  131.3777   12.3533
  2.350  132.5818   11.8775  132.1627   12.3919  132.1960   12.3937  132.5875   11.9508  132.9628   12.7179  132.9910   12.7154
  2.360  134.2342   12.2321  133.8035   12.7579  133.8372   12.7599  134.2429   12.3093  134.6241   13.0965  134.6530   13.0937
  2.370  135.9371   12.6027  135.4943   13.1403  135.5285   13.1426  135.9490   12.6841  136.3362   13.4922  136.3659   13.4892
  2.380  137.6929   12.9904  137.2374   13.5402  137.2721   13.5427  137.7082   13.0762  138.1016   13.9062  138.1320   13.9027
  2.390  139.5040   13.3962  139.0352   13.9587  139.0705   13.9614  139.5229   13.4867  139.9226   14.3394  139.9539   14.3357
  2.400  141.3730   13.8213  140.8903   14.3969  140.9261   14.3999  141.3958   13.9168  141.8019   14.7933  141.8340   14.7891
  2.410  143.3027   14.2669  142.8054   14.8561  142.8417   14.8594  143.3295   14.3678  143.7422   15.2691  143.7753   15.2645
  2.420  145.2960   14.7345  144.7834   15.3376  144.8203   15.3412  145.3271   14.8410  145.7465   15.7682  145.7806   15.7632
  2.430  147.3561   15.2254  146.8273   15.8431  146.8648   15.8470  147.3916   15.3379  147.8180   16.2923  147.8531   16.2868
  2.440  149.4862   15.7413  148.9405   16.3741  148.9786   16.3783  149.5266   15.8603  149.9599   16.8430  149.9961   16.8371
  2.450  151.6900   16.2839  151.1264   16.9323  151.1651   16.9370  151.7355   16.4098  152.1760   17.4223  152.2133   17.4158
  2.460  153.9712   16.8551  153.3889   17.5198  153.4282   17.5248  154.0221   16.9883  154.4700   18.0321  154.5085   18.0251
  2.470  156.3340   17.4570  155.7318   18.1385  155.7718   18.1440  156.3906   17.5981  156.8459   18.6746  156.8858   18.6671
  2.480  158.7826   18.0919  158.1596   18.7909  158.2003   18.7968  158.8454   18.2414  159.3083   19.3523  159.3495   19.3442
  2.490  161.3218   18.7621  160.6767   19.4793  160.7181   19.4857  161.3911   18.9206  161.8617   20.0677  161.9044   20.0590
  2.500  163.9566   19.4704  163.2880   20.2065  163.3302   20.2134  164.0328   19.6387  164.5112   20.8239  164.5555   20.8145
  2.510  166.6923   20.2198  165.9990   20.9756  166.0420   20.9830  166.7759   20.3985  167.2622   21.6238  167.3082   21.6138
  2.520  169.5347   21.0135  168.8152   21.7898  168.8590   21.7978  169.6263   21.2035  170.1205   22.4712  170.1683   22.4604
  2.530  172.4901   21.8552  171.7428   22.6527  171.7874   22.6614  172.5901   22.0572  173.0924   23.3696  173.1420   23.3581
  2.540  175.5653   22.7488  174.7883   23.5685  174.8338   23.5778  175.6741   22.9639  176.1846   24.3235  176.2362   24.3112
  2.550  178.7673   23.6986  177.9589   24.5414  178.0052   24.5515  178.8857   23.9278  179.4043   25.3375  179.4581   25.3243
  2.560  182.1042   24.7096  181.2621   25.5764  181.3094   25.5873  182.2327   24.9540  182.7594   26.4168  182.8156   26.4027
  2.570  185.5843   25.7871  184.7064   26.6790  184.7547   26.6907  185.7237   26.0481  186.2584   27.5671  186.3171   27.5520
  2.580  189.2168   26.9371  188.3007   27.8551  188.3500   27.8678  189.3678   27.2161  189.9105   28.7949  189.9719   28.7788
  2.590  193.0118   28.1663  192.0546   29.1116  192.1050   29.1253  193.1752   28.4648  193.7256   30.1073  193.7900   30.0901
  2.600  196.9800   29.4822  195.9789   30.4560  196.0304   30.4707  197.1566   29.8020  197.7145   31.5123  197.7821   31.4940
  2.610  201.1333   30.8932  200.0850   31.8966  200.1377   31.9125  201.3240   31.2362  201.8891   33.0188  201.9601   32.9993
  2.620  205.4844   32.4087  204.3855   33.4431  204.4393   33.4602  205.6903   32.7770  206.2622   34.6370  206.3369   34.6162
  2.630  210.0475   34.0393  208.8939   35.1059  208.9490   35.1244  210.2696   34.4354  210.8476   36.3781  210.9263   36.3561
  2.640  214.8379   35.7970  213.6252   36.8972  213.6816   36.9172  215.0773   36.2235  215.6607   38.2551  215.7438   38.2316
  2.650  219.8722   37.6953  218.5957   38.8305  218.6535   38.8522  220.1302   38.1554  220.7180   40.2823  220.8060   40.2574
  2.660  225.1690   39.7497  223.8233   40.9214  223.8826   40.9448  225.4469   40.2467  226.0379   42.4763  226.1311   42.4499
  2.670  230.7484   41.9778  229.3275   43.1875  229.3884   43.2128  231.0475   42.5156  231.6403   44.8560  231.7393   44.8280
  2.680  236.6327   44.3997  235.1299   45.6488  235.1923   45.6763  236.9544   44.9827  237.5472   47.4427  237.6526   47.4131
  2.690  242.8461   47.0386  241.2541   48.3284  241.3182   48.3583  243.1922   47.6716  243.7827   50.2613  243.8950   50.2300
  2.700  249.4158   49.9209  247.7262   51.2531  247.7920   51.2855  249.7878   50.6098  250.3731   53.3402  250.4931   53.3071
  2.710  256.3714   53.0777  254.5747   54.4533  254.6423   54.4887  256.7710   53.8289  257.3478   56.7122  257.4763   56.6774
  2.720  263.7458   56.5445  261.8313   57.9649  261.9008   58.0034  264.1747   57.3655  264.7386   60.4157  264.8767   60.3790
  2.730  271.5752   60.3632  269.5309   61.8292  269.6024   61.8712  272.0353   61.2626  272.5810   64.4952  272.7296   64.4567
  2.740  279.8998   64.5826  277.7119   66.0947  277.7855   66.1406  280.3927   65.5703  280.9137   69.0027  281.0742   68.9626
  2.750  288.7638   69.2603  286.4169   70.8186  286.4925   70.8689  289.2913   70.3478  289.7793   73.9999  289.9531   73.9581
  2.760  298.2164   74.4642  295.6923   76.0682  295.7701   76.1234  298.7798   75.6650  299.2248   79.5591  299.4135   79.5159
  2.770  308.3113   80.2753  305.5898   81.9234  305.6698   81.9841  308.9119   81.6052  309.3010   85.7665  309.5067   85.7222
  2.780  319.1080   86.7902  316.1653   88.4796  316.2475   88.5465  319.7463   88.2677  320.0637   92.7252  320.2884   92.6802
  2.790  330.6712   94.1250  327.4802   95.8512  327.5646   95.9250  331.3469   95.7720  331.5725  100.5584  331.8190  100.5134
  2.800  343.0713  102.4201  339.6003  104.1760  339.6869  104.2578  343.7828  104.2625  343.8911  109.4154  344.1626  109.3713
  2.810  356.3834  111.8461  352.5959  113.6213  352.6845  113.7121  357.1273  113.9148  357.0859  119.4768  357.3859  119.4348
  2.820  370.6866  122.6117  366.5402  124.3914  366.6305  124.4925  371.4566  124.9435  371.2241  130.9632  371.5569  130.9253
  2.830  386.0613  134.9733  381.5066  136.7364  381.5983  136.8493  386.8470  137.6125  386.3699  144.1454  386.7406  144.1139
  2.840  402.5850  149.2488  397.5645  150.9656  397.6571  151.0920  403.3700  152.2482  402.5789  159.3568  402.9935  159.3354
  2.850  420.3246  165.8332  414.7721  167.4623  414.8646  167.6042  421.0835  169.2567  419.8881  177.0108  420.3537  177.0043
  2.860  439.3241  185.2209  433.1632  186.7043  433.2545  186.8642  440.0188  189.1448  438.3002  197.6211  438.8250  197.6364
  2.870  459.5836  208.0323  452.7276  209.2897  452.8160  209.4702  460.1570  212.5476  457.7583  221.8274  458.3518  221.8741
  2.880  481.0255  235.0479  473.3784  235.9675  473.4612  236.1718  481.3927  240.2619  478.1056  250.4262  478.7785  250.5180
  2.890  503.4394  267.2483  494.8985  267.6755  494.9723  267.9070  503.4751  273.2848  499.0223  284.4042  499.7861  284.5602
  2.900  526.3941  305.8582  516.8577  305.5792  516.9177  305.8416  525.9139  312.8533  519.9264  324.9692  520.7926  325.2163
  2.910  549.0970  352.3837  538.4800  351.1060  538.5195  351.4028  547.8321  360.4755  539.8228  373.5646  540.8004  373.9404
  2.920  570.1774  408.6208  558.4403  405.9498  558.4504  406.2844  567.7417  417.9233  557.0779  431.8369  558.1696  432.3931
  2.930  587.3621  476.5843  574.5626  472.0019  574.5315  472.3762  583.2147  487.1347  569.1052  501.4957  570.2995  502.3016
  2.940  597.0269  558.2530  583.4045  551.1109  583.3170  551.5244  590.4451  569.9152  571.9719  583.9587  573.2296  585.1021
  2.950  593.6671  654.9538  579.7674  644.5102  579.6051  644.9583  583.7653  667.2618  560.0267  679.6180  561.2611  681.1987
  2.960  569.5056  766.1291  556.3337  751.6779  556.0750  752.1500  555.3728  778.0794  525.8407  786.5600  526.8934  788.6662
  2.970  514.8222  887.2983  503.9604  868.4566  503.5811  868.9324  495.8723  897.1820  461.0575  898.7722  461.6844  901.4300
  2.980  420.0680 1007.5666  413.6000  984.7438  413.0766  985.1877  396.6206 1013.0723  358.9329 1004.5179  358.8302 1007.6138
  2.990  280.7678 1108.4217  280.7718 1083.3231  280.0920 1083.6774  254.5917 1107.2963  218.7546 1086.6082  217.6621 1089.8265
  3.000  104.1500 1167.1298  111.6712 1142.8240  110.8570 1143.0125   78.3459 1158.3273   50.3115 1126.6769   48.1748 1129.5367
  3.010  -87.8350 1166.5098  -73.8100 1146.4994  -74.6834 1146.4597 -109.9946 1151.0071 -125.7776 1113.2421 -128.7053 1115.2805
  3.020 -265.3566 1105.6636 -247.8389 1092.2026 -248.6647 1091.9315 -281.9243 1086.0177 -284.8560 1048.5644 -288.1017 1049.5564
  3.030 -404.6731 1001.2782 -387.2041  994.3083 -387.9017  993.8691 -415.5790  980.2002 -408.6106  947.9525 -411.7068  947.9773
  3.040 -497.3262  877.6865 -482.3258  875.2938 -482.8794  874.7719 -503.7067  856.8642 -491.0215  831.7510 -493.6780  831.0761
  3.050 -548.5978  755.5336 -536.7084  755.2335 -537.1554  754.6843 -551.6884  735.3718 -536.6862  717.0232 -538.8125  715.9423
  3.060 -570.7050  646.6216 -561.0128  646.4870 -561.4053  645.9075 -570.9394  626.7248 -555.5616  613.8635 -557.1992  612.5981
  3.070 -576.7564  553.3567 -567.4803  552.9154 -567.8254  552.2448 -573.3665  533.6515 -558.4427  525.2010 -559.6788  523.8695
  3.080 -574.4695  470.4520 -564.5858  471.0544 -564.7847  470.2548 -566.5662  452.5714 -552.7539  447.9900 -553.6378  446.6439
  3.090 -562.3380  394.0397 -552.9667  396.9175 -552.9189  396.1022 -551.2114  380.3228 -539.4357  378.8090 -539.9913  377.5273
  3.100 -539.6853  327.9778 -532.2074  332.4917 -531.9717  331.8003 -527.9154  318.7574 -518.5221  319.0186 -518.8309  317.8773
  3.110 -511.6049  274.6975 -506.2003  279.6976 -505.8854  279.1563 -500.7252  268.8115 -493.3834  269.8732 -493.5369  268.8837
  3.120 -482.5566  232.4401 -478.8150  237.2454 -478.4839  236.8230 -472.9962  228.7183 -467.2451  230.0833 -467.3014  229.2262
  3.130 -454.5656  198.5830 -452.0330  202.9186 -451.7108  202.5805 -446.2894  196.2379 -441.7556  197.6742 -441.7476  196.9279
  3.140 -428.3237  171.0340 -426.6462  174.8283 -426.3405  174.5489 -421.1710  169.5801 -417.5794  170.9765 -417.5271  170.3234
  3.150 -403.9856  148.2945 -402.9099  151.5624 -402.6213  151.3239 -397.7857  147.4316 -394.9340  148.7340 -394.8505  148.1600
  3.160 -381.5014  129.2910 -380.8505  132.0800 -380.5772  131.8703 -376.1053  128.8286 -373.8419  130.0113 -373.7362  129.5055
  3.170 -360.7458  113.2373 -360.3958  115.6037 -360.1350  115.4144 -356.0303  113.0503 -354.2394  114.1031 -354.1181  113.6564
  3.180 -341.5684   99.5435 -341.4319  101.5427 -341.1806  101.3677 -337.4335   99.5473 -336.0252  100.4686 -335.8929  100.0738
  3.190 -323.8151   87.7583 -323.8305   89.4409 -323.5857   89.2757 -320.1799   87.8940 -319.0832   88.6868 -318.9437   88.3379
  3.200 -307.3374   77.5299 -307.4604   78.9409 -307.2192   78.7820 -304.1363   77.7558 -303.2943   78.4259 -303.1503   78.1179
  3.210 -291.9952   68.5807 -292.1944   69.7593 -291.9537   69.6040 -289.1746   68.8665 -288.5414   69.4207 -288.3953   69.1496
  3.220 -277.6579   60.6884 -277.9108   61.6688 -277.6677   61.5148 -275.1741   61.0119 -274.7116   61.4576 -274.5653   61.2201
  3.230 -264.2029   53.6727 -264.4938   54.4847 -264.2450   54.3302 -262.0200   54.0174 -261.6962   54.3625 -261.5518   54.1556
  3.240 -251.5141   47.3857 -251.8325   48.0559 -251.5743   47.8990 -249.6029   47.7396 -249.3902   47.9919 -249.2498   47.8132
  3.250 -239.4783   41.7048 -239.8178   42.2568 -239.5459   42.0958 -237.8152   42.0591 -237.6891   42.2270 -237.5551   42.0739
  3.260 -227.9804   36.5274 -228.3388   36.9833 -228.0478   36.8165 -226.5478   36.8764 -226.4859   36.9693 -226.3610   36.8390
  3.270 -216.8970   31.7697 -217.2768   32.1503 -216.9590   31.9758 -215.6835   32.1097 -215.6647   32.1393 -215.5518   32.0276
  3.280 -206.0870   27.3703 -206.4967   27.6949 -206.1412   27.5119 -205.0892   27.6978 -205.0938   27.6795 -204.9952   27.5808
  3.290 -195.3840   23.3038 -195.8405   23.5883 -195.4308   23.3989 -194.6080   23.6116 -194.6189   23.5661 -194.5345   23.4727
  3.300 -184.6003   19.6027 -185.1287   19.8554 -184.6431   19.6699 -184.0592   19.8730 -184.0643   19.8278 -183.9897   19.7320
  3.310 -173.5447   16.3734 -174.1757   16.5919 -173.5915   16.4338 -173.2515   16.5729 -173.2467   16.5618 -173.1729   16.4598
  3.320 -162.0335   13.7961 -162.8017   13.9688 -162.1023   13.8755 -161.9906   13.8784 -161.9805   13.9413 -161.8988   13.8366
  3.330 -149.8693   12.1525 -150.8220   12.2567 -149.9999   12.2775 -150.0647   12.0655 -150.0651   12.2545 -149.9734   12.1556
  3.340 -136.8517   11.9382 -138.0589   11.9191 -137.1182   12.1212 -137.2594   11.6289 -137.3137   12.0197 -137.2194   11.9318
  3.350 -122.9374   14.0379 -124.4799   13.7628 -123.4551   14.2416 -123.5157   13.4541 -123.7413   14.1443 -123.6564   14.0602
  3.360 -108.6936   19.8219 -110.5899   19.0237 -109.5916   19.8947 -109.3823   18.9193 -110.0434   19.9622 -109.9696   19.8559
  3.370  -96.1112   30.7154  -98.1345   29.0120  -97.4039   30.3342  -96.8364   29.4668  -98.3520   30.6700  -98.2535   30.5085
  3.380  -89.0160   46.4493  -90.5130   43.6478  -90.3681   45.2566  -89.6989   44.8406  -92.3280   45.5277  -92.1241   45.3266
  3.390  -90.7621   62.8321  -90.9830   59.4352  -91.5326   60.8948  -91.2968   60.8592  -94.5476   60.1905  -94.1945   60.0601
  3.400  -99.8034   73.7366  -98.7213   70.7200  -99.6756   71.6718 -100.0556   71.4716 -102.8736   69.3507 -102.4538   69.4019
  3.410 -110.5132   76.9415 -108.7978   74.8201 -109.7784   75.2736 -110.4310   74.5475 -112.1887   71.6482 -111.8317   71.8776
  3.420 -118.7543   74.8024 -116.9968   73.4570 -117.8392   73.6024 -118.4152   72.4132 -119.1364   69.3972 -118.9100   69.7284
  3.430 -123.6567   70.4442 -122.0823   69.5748 -122.7862   69.5495 -123.1911   68.0859 -123.1180   65.2909 -123.0284   65.6514
  3.440 -125.9844   65.7736 -124.6032   65.1708 -125.1959   65.0193 -125.5048   63.3543 -124.8267   60.9461 -124.8563   61.2881
  3.450 -126.7717   61.5613 -125.5497   61.1309 -126.0148   60.8606 -126.2640   58.8419 -125.1703   57.0284 -125.2965   57.3195
  3.460 -126.8569   57.9214 -125.7899   57.6081 -126.0720   57.2675 -125.8937   54.7661 -124.8948   53.6220 -125.0898   53.8363
  3.470 -126.7936   54.6003 -125.8641   54.3179 -125.9605   54.0296 -125.1749   51.5199 -124.4530   50.4704 -124.6780   50.5925
  3.480 -126.7507   51.1211 -125.8536   50.8238 -125.8873   50.6663 -124.7379   48.2228 -123.9114   47.2116 -124.1226   47.2488
  3.490 -126.3841   47.1326 -125.4458   46.9108 -125.5247   46.8106 -123.9422   44.4513 -123.0230   43.6822 -123.1919   43.6645
  3.500 -125.2141   42.8345 -124.3039   42.7728 -124.4026   42.6418 -122.4120   40.5530 -121.5421   40.0459 -121.6660   40.0066
  3.510 -123.1731   38.7206 -122.3826   38.7911 -122.4444   38.6292 -120.2031   36.9163 -119.4596   36.5953 -119.5506   36.5538
  3.520 -120.5260   35.1025 -119.8821   35.2348 -119.8935   35.0756 -117.5516   33.7328 -116.9455   33.5214 -117.0162   33.4840
  3.530 -117.5665   32.0430 -117.0521   32.1857 -117.0270   32.0498 -114.6805   31.0239 -114.1946   30.8721 -114.2531   30.8390
  3.540 -114.4956   29.4822 -114.0833   29.6101 -114.0385   29.5016 -111.7392   28.7329 -111.3509   28.6128 -111.4012   28.5827
  3.550 -111.4262   27.3302 -111.0924   27.4338 -111.0391   27.3492 -108.8121   26.7856 -108.5014   26.6828 -108.5451   26.6546
  3.560 -108.4153   25.5040 -108.1424   25.5815 -108.0868   25.5154 -105.9419   25.1150 -105.6932   25.0222 -105.7312   24.9957
  3.570 -105.4883   23.9371 -105.2643   23.9896 -105.2090   23.9371 -103.1482   23.6674 -102.9495   23.5811 -102.9824   23.5566
  3.580 -102.6547   22.5787 -102.4706   22.6083 -102.4167   22.5657 -100.4380   22.4015 -100.2802   22.3201 -100.3089   22.2981
  3.590  -99.9156   21.3906  -99.7651   21.3996  -99.7127   21.3643  -97.8122   21.2858  -97.6882   21.2089  -97.7137   21.1894
  3.600  -97.2681   20.3438  -97.1464   20.3344  -97.0954   20.3045  -95.2685   20.2963  -95.1727   20.2242  -95.1959   20.2071
  3.610  -94.7077   19.4164  -94.6112   19.3907  -94.5614   19.3649  -92.8031   19.4148  -92.7311   19.3478  -92.7526   19.3328
  3.620  -92.2291   18.5915  -92.1552   18.5514  -92.1063   18.5287  -90.4117   18.6267  -90.3601   18.5656  -90.3803   18.5524
  3.630  -89.8273   17.8559  -89.7738   17.8033  -89.7255   17.7829  -88.0902   17.9210  -88.0560   17.8665  -88.0752   17.8550
  3.640  -87.4971   17.1992  -87.4625   17.1357  -87.4147   17.1172  -85.8344   17.2887  -85.8151   17.2418  -85.8335   17.2315
  3.650  -85.2340   16.6133  -85.2171   16.5405  -85.1695   16.5232  -83.6404   16.7226  -83.6341   16.6843  -83.6518   16.6752
  3.660  -83.0337   16.0916  -83.0337   16.0109  -82.9862   15.9946  -81.5047   16.2171  -81.5096   16.1884  -81.5266   16.1803
  3.670  -80.8924   15.6289  -80.9088   15.5415  -80.8612   15.5258  -79.4239   15.7675  -79.4387   15.7494  -79.4552   15.7422
  3.680  -78.8067   15.2209  -78.8392   15.1280  -78.7914   15.1127  -77.3954   15.3699  -77.4189   15.3636  -77.4347   15.3573
  3.690  -76.7735   14.8642  -76.8222   14.7669  -76.7740   14.7518  -75.4166   15.0213  -75.4476   15.0281  -75.4630   15.0227
  3.700  -74.7905   14.5559  -74.8554   14.4553  -74.8066   14.4401  -73.4853   14.7193  -73.5230   14.7404  -73.5379   14.7357
  3.710  -72.8552   14.2940  -72.9369   14.1909  -72.8873   14.1754  -71.5996   14.4616  -71.6435   14.4984  -71.6579   14.4944
  3.720  -70.9660   14.0763  -71.0649   13.9716  -71.0145   13.9557  -69.7582   14.2465  -69.8076   14.3004  -69.8215   14.2972
  3.730  -69.1213   13.9015  -69.2382   13.7958  -69.1867   13.7794  -67.9599   14.0726  -68.0143   14.1451  -68.0279   14.1425
  3.740  -67.3201   13.7681  -67.4558   13.6620  -67.4031   13.6451  -66.2037   13.9384  -66.2631   14.0311  -66.2762   14.0292
  3.750  -65.5617   13.6748  -65.7172   13.5690  -65.6632   13.5512  -64.4893   13.8426  -64.5534   13.9573  -64.5662   13.9559
  3.760  -63.8455   13.6204  -64.0222   13.5153  -63.9665   13.4967  -62.8164   13.7841  -62.8852   13.9224  -62.8976   13.9216
  3.770  -62.1716   13.6037  -62.3706   13.4995  -62.3132   13.4800  -61.1850   13.7614  -61.2588   13.9252  -61.2708   13.9249
  3.780  -60.5399   13.6232  -60.7628   13.5203  -60.7034   13.4998  -59.5953   13.7730  -59.6743   13.9642  -59.6860   13.9644
  3.790  -58.9507   13.6774  -59.1992   13.5758  -59.1376   13.5542  -58.0477   13.8173  -58.1324   14.0377  -58.1437   14.0385
  3.800  -57.4045   13.7645  -57.6803   13.6641  -57.6163   13.6414  -56.5427   13.8921  -56.6337   14.1440  -56.6446   14.1452
  3.810  -55.9015   13.8822  -56.2067   13.7828  -56.1400   13.7590  -55.0807   13.9952  -55.1788   14.2807  -55.1892   14.2823
  3.820  -54.4423   14.0282  -54.7789   13.9294  -54.7093   13.9044  -53.6621   14.1239  -53.7682   14.4452  -53.7781   14.4472
  3.830  -53.0268   14.1996  -53.3972   14.1008  -53.3242   14.0746  -52.2869   14.2752  -52.4021   14.6345  -52.4115   14.6370
  3.840  -51.6549   14.3933  -52.0615   14.2937  -51.9849   14.2664  -50.9549   14.4459  -51.0804   14.8456  -51.0892   14.8484
  3.850  -50.3260   14.6059  -50.7713   14.5046  -50.6908   14.4762  -49.6653   14.6322  -49.8026   15.0748  -49.8108   15.0781
  3.860  -49.0389   14.8340  -49.5257   14.7295  -49.4409   14.7002  -48.4171   14.8306  -48.5676   15.3186  -48.5751   15.3223
  3.870  -47.7919   15.0740  -48.3230   14.9648  -48.2334   14.9347  -47.2081   15.0373  -47.3736   15.5733  -47.3804   15.5775
  3.880  -46.5824   15.3224  -47.1608   15.2067  -47.0662   15.1760  -46.0359   15.2485  -46.2182   15.8355  -46.2242   15.8401
  3.890  -45.4075   15.5761  -46.0363   15.4517  -45.9363   15.4206  -44.8972   15.4610  -45.0983   16.1018  -45.1034   16.1069
  3.900  -44.2632   15.8323  -44.9457   15.6966  -44.8399   15.6654  -43.7881   15.6718  -44.0101   16.3695  -44.0144   16.3753
  3.910  -43.1454   16.0889  -43.8849   15.9389  -43.7730   15.9079  -42.7040   15.8784  -42.9494   16.6366  -42.9528   16.6430
  3.920  -42.0491   16.3445  -42.8492   16.1768  -42.7308   16.1463  -41.6401   16.0791  -41.9114   16.9014  -41.9139   16.9085
  3.930  -40.9693   16.5983  -41.8336   16.4090  -41.7083   16.3794  -40.5910   16.2729  -40.8911   17.1635  -40.8927   17.1713
  3.940  -39.9006   16.8508  -40.8328   16.6350  -40.7005   16.6069  -39.5512   16.4597  -39.8834   17.4229  -39.8840   17.4315
  3.950  -38.8378   17.1028  -39.8416   16.8555  -39.7018   16.8291  -38.5150   16.6401  -38.8830   17.6807  -38.8826   17.6903
  3.960  -37.7756   17.3565  -38.8548   17.0714  -38.7073   17.0473  -37.4769   16.8153  -37.8849   17.9389  -37.8835   17.9494
  3.970  -36.7089   17.6147  -37.8672   17.2847  -37.7117   17.2634  -36.4314   16.9877  -36.8843   18.2002  -36.8819   18.2116
  3.980  -35.6333   17.8810  -36.8740   17.4979  -36.7103   17.4798  -35.3733   17.1601  -35.8767   18.4679  -35.8734   18.4803
  3.990  -34.5445   18.1598  -35.8706   17.7141  -35.6985   17.6998  -34.2977   17.3357  -34.8582   18.7460  -34.8540   18.7595
  4.000  -33.4390   18.4559  -34.8526   17.9369  -34.6717   17.9268  -33.1997   17.5187  -33.8252   19.0392  -33.8200   19.0537
  4.010  -32.3136   18.7750  -33.8159   18.1702  -33.6260   18.1650  -32.0748   17.7136  -32.7746   19.3526  -32.7685   19.3680
  4.020  -31.1660   19.1231  -32.7564   18.4187  -32.5572   18.4189  -30.9187   17.9253  -31.7038   19.6916  -31.6967   19.7079
  4.030  -29.9946   19.5064  -31.6703   18.6872  -31.4613   18.6933  -29.7273   18.1593  -30.6107   20.0621  -30.6026   20.0792
  4.040  -28.7985   19.9315  -30.5534   18.9810  -30.3344   18.9938  -28.4964   18.4216  -29.4936   20.4702  -29.4843   20.4879
  4.050  -27.5775   20.4049  -29.4017   19.3064  -29.1721   19.3264  -27.2219   18.7188  -28.3512   20.9220  -28.3406   20.9402
  4.060  -26.3322   20.9325  -28.2108   19.6701  -27.9700   19.6982  -25.8996   19.0581  -27.1822   21.4239  -27.1700   21.4425
  4.070  -25.0633   21.5195  -26.9759   20.0802  -26.7231   20.1172  -24.5254   19.4477  -25.9853   21.9822  -25.9712   22.0011
  4.080  -23.7712   22.1700  -25.6918   20.5462  -25.4262   20.5932  -23.0946   19.8967  -24.7586   22.6034  -24.7421   22.6224
  4.090  -22.4545   22.8865  -24.3529   21.0797  -24.0734   21.1378  -21.6025   20.4157  -23.4988   23.2943  -23.4795   23.3135
  4.100  -21.1084   23.6708  -22.9535   21.6948  -22.6588   21.7659  -20.0442   21.0166  -22.2004   24.0633  -22.1778   24.0825
  4.110  -19.7222   24.5255  -21.4882   22.4096  -21.1768   22.4955  -18.4144   21.7136  -20.8551   24.9214  -20.8286   24.9405
  4.120  -18.2778   25.4585  -19.9524   23.2461  -19.6225   23.3495  -16.7076   22.5234  -19.4519   25.8855  -19.4207   25.9040
  4.130  -16.7510   26.4884  -18.3437   24.2320  -17.9936   24.3565  -14.9183   23.4661  -17.9782   26.9811  -17.9407   26.9983
  4.140  -15.1158   27.6498  -16.6639   25.4008  -16.2917   25.5510  -13.0409   24.5657  -16.4233   28.2453  -16.3768   28.2608
  4.150  -13.3524   28.9958  -14.9206   26.7928  -14.5247   26.9745  -11.0708   25.8517  -14.7834   29.7291  -14.7235   29.7436
  4.160  -11.4552   30.5965  -13.1308   28.4544  -12.7102   28.6753   -9.0046   27.3602  -13.0679   31.4969  -12.9895   31.5135
  4.170   -9.4379   32.5332  -11.3240   30.4370  -10.8788   30.7067   -6.8414   29.1355  -11.3056   33.6242  -11.2041   33.6493
  4.180   -7.3360   34.8947   -9.5455   32.7953   -9.0779   33.1254   -4.5850   31.2325   -9.5514   36.1930   -9.4244   36.2362
  4.190   -5.2082   37.7748   -7.8605   35.5827   -7.3755   35.9869   -2.2462   33.7190   -7.8913   39.2862   -7.7409   39.3591
  4.200   -3.1406   41.2731   -6.3565   38.8468   -5.8634   39.3403    0.1519   36.6790   -6.4485   42.9795   -6.2817   43.0933
  4.210   -1.2568   45.4932   -5.1455   42.6215   -4.6595   43.2206    2.5673   40.2157   -5.3885   47.3301   -5.2174   47.4936
  4.220    0.2672   50.5366   -4.3641   46.9189   -3.9073   47.6390    4.9280   44.4542   -4.9246   52.3610   -4.7647   52.5781
  4.230    1.1832   56.4846   -4.1701   51.7186   -3.7736   52.5719    7.1147   49.5419   -5.3190   58.0370   -5.1871   58.3054
  4.240    1.1541   63.3626   -4.7365   56.9580   -4.4404   57.9494    8.9365   55.6432   -6.8750   64.2306   -6.7864   64.5418
  4.250   -0.2491   71.0805   -6.2405   62.5236   -6.0940   63.6458   10.0965   62.9213   -9.9089   70.6801   -9.8747   71.0206
  4.260   -3.5116   79.3541   -8.8518   68.2457   -8.9093   69.4727   10.1501   71.4941  -14.6871   76.9496  -14.7130   77.3036
  4.270   -9.0762   87.6316  -12.7221   73.8932  -13.0362   75.1750    8.4693   81.3463  -21.3199   82.4211  -21.4063   82.7727
  4.280  -17.1766   95.0831  -17.9734   79.1624  -18.5828   80.4211    4.2496   92.1787  -29.6284   86.3631  -29.7719   86.6975
  4.290  -27.6573  100.7118  -24.6709   83.6510  -25.5837   84.7847   -3.3650  103.2052  -39.0541   88.1108  -39.2479   88.4142
  4.300  -39.8824  103.5838  -32.7482   86.8361  -33.9258   87.7337  -14.9457  112.9984  -48.7161   87.3120  -48.9483   87.5721
  4.310  -52.7969  103.0845  -41.8768   88.1212  -43.2263   88.6906  -30.2446  119.6214  -57.6506   84.0935  -57.9044   84.3033
  4.320  -65.1172   99.1143  -51.3642   87.0290  -52.7533   87.2295  -47.7771  121.2735  -65.1129   79.0122  -65.3704   79.1729
  4.330  -75.6183   92.1778  -60.2508   83.4849  -61.5448   83.3446  -65.0653  117.2407  -70.7522   72.8233  -70.9996   72.9432
  4.340  -83.4715   83.2839  -67.6469   77.9527  -68.7484   77.5552  -79.6502  108.3821  -74.5866   66.2313  -74.8164   66.3220
  4.350  -88.4553   73.6211  -73.0682   71.2519  -73.9365   70.7012  -90.1197   96.6414  -76.8610   59.7526  -77.0716   59.8250
  4.360  -90.8845   64.1867  -76.5107   64.2120  -77.1529   63.6000  -96.3591   84.0576  -77.9028   53.6968  -78.0960   53.7587
  4.370  -91.3471   55.5984  -78.2843   57.4342  -78.7345   56.8251  -99.0976   72.0853  -78.0291   48.2103  -78.2082   48.2668
  4.380  -90.4559   48.1164  -78.8013   51.2459  -79.1014   50.6770  -99.3252   61.4698  -77.5061   43.3332  -77.6744   43.3873
  4.390  -88.7171   41.7638  -78.4422   45.7672  -78.6312   45.2555  -97.9332   52.4339  -76.5404   39.0457  -76.7005   39.0989
  4.400  -86.4980   36.4415  -77.5061   40.9968  -77.6159   40.5466  -95.5913   44.9111  -75.2849   35.2986  -75.4390   35.3515
  4.410  -84.0449   32.0062  -76.2088   36.8752  -76.2637   36.4843  -92.7542   38.7129  -73.8499   32.0321  -73.9995   32.0849
  4.420  -81.5141   28.3113  -74.6989   33.3231  -74.7167   32.9857  -89.7110   33.6221  -72.3129   29.1851  -72.4592   29.2379
  4.430  -79.0003   25.2249  -73.0761   30.2596  -73.0692   29.9689  -86.6365   29.4353  -70.7281   26.7009  -70.8718   26.7537
  4.440  -76.5583   22.6350  -71.4059   27.6106  -71.3832   27.3602  -83.6314   25.9782  -69.1321   24.5285  -69.2739   24.5812
  4.450  -74.2170   20.4500  -69.7306   25.3122  -69.6981   25.0957  -80.7498   23.1080  -67.5499   22.6237  -67.6900   22.6763
  4.460  -71.9900   18.5956  -68.0773   23.3097  -68.0390   23.1218  -78.0175   20.7103  -65.9974   20.9483  -66.1364   21.0007
  4.470  -69.8813   17.0123  -66.4625   21.5578  -66.4212   21.3938  -75.4432   18.6940  -64.4851   19.4697  -64.6230   19.5221
  4.480  -67.8891   15.6523  -64.8960   20.0183  -64.8534   19.8743  -73.0262   16.9872  -63.0188   18.1606  -63.1560   18.2128
  4.490  -66.0088   14.4774  -63.3830   18.6600  -63.3403   18.5327  -70.7600   15.5331  -61.6018   16.9974  -61.7383   17.0497
  4.500  -64.2340   13.4567  -61.9257   17.4566  -61.8836   17.3432  -68.6357   14.2866  -60.2352   15.9606  -60.3713   16.0130
  4.510  -62.5575   12.5653  -60.5244   16.3863  -60.4833   16.2845  -66.6431   13.2116  -58.9188   15.0334  -59.0547   15.0859
  4.520  -60.9722   11.7830  -59.1782   15.4309  -59.1381   15.3388  -64.7717   12.2794  -57.6518   14.2017  -57.7875   14.2544
  4.530  -59.4710   11.0934  -57.8852   14.5749  -57.8463   14.4909  -63.0115   11.4667  -56.4323   13.4532  -56.5680   13.5063
  4.540  -58.0473   10.4827  -56.6433   13.8057  -56.6054   13.7284  -61.3528   10.7548  -55.2585   12.7779  -55.3944   12.8314
  4.550  -56.6947    9.9398  -55.4499   13.1121  -55.4130   13.0405  -59.7869   10.1282  -54.1283   12.1670  -54.2644   12.2209
  4.560  -55.4076    9.4555  -54.3025   12.4851  -54.2664   12.4181  -58.3056    9.5745  -53.0394   11.6128  -53.1759   11.6673
  4.570  -54.1806    9.0219  -53.1986   11.9167  -53.1630   11.8536  -56.9015    9.0832  -51.9895   11.1089  -52.1265   11.1641
  4.580  -53.0088    8.6325  -52.1355   11.4001  -52.1002   11.3401  -55.5681    8.6457  -50.9765   10.6498  -51.1141   10.7057
  4.590  -51.8880    8.2818  -51.1108   10.9295  -51.0756   10.8722  -54.2992    8.2550  -49.9982   10.2307  -50.1366   10.2874
  4.600  -50.8141    7.9653  -50.1221   10.5000  -50.0869   10.4448  -53.0893    7.9049  -49.0525    9.8473  -49.1918    9.9049
  4.610  -49.7834    7.6789  -49.1672   10.1072  -49.1317   10.0537  -51.9337    7.5904  -48.1376    9.4960  -48.2779    9.5546
  4.620  -48.7927    7.4194  -48.2440    9.7474  -48.2081    9.6952  -50.8278    7.3073  -47.2514    9.1737  -47.3930    9.2333
  4.630  -47.8389    7.1837  -47.3506    9.4173  -47.3140    9.3661  -49.7676    7.0519  -46.3924    8.8775  -46.5353    8.9383
  4.640  -46.9193    6.9695  -46.4850    9.1140  -46.4475    9.0636  -48.7496    6.8211  -45.5589    8.6051  -45.7031    8.6671
  4.650  -46.0314    6.7746  -45.6456    8.8352  -45.6071    8.7852  -47.7705    6.6124  -44.7492    8.3543  -44.8951    8.4176
  4.660  -45.1729    6.5971  -44.8307    8.5785  -44.7909    8.5288  -46.8272    6.4233  -43.9620    8.1233  -44.1096    8.1879
  4.670  -44.3418    6.4354  -44.0388    8.3420  -43.9976    8.2925  -45.9171    6.2519  -43.1960    7.9104  -43.3454    7.9764
  4.680  -43.5360    6.2882  -43.2685    8.1242  -43.2258    8.0746  -45.0378    6.0966  -42.4497    7.7141  -42.6012    7.7816
  4.690  -42.7539    6.1542  -42.5185    7.9234  -42.4740    7.8736  -44.1870    5.9559  -41.7221    7.5331  -41.8757    7.6023
  4.700  -41.9938    6.0324  -41.7876    7.7383  -41.7411    7.6883  -43.3626    5.8285  -41.0119    7.3663  -41.1680    7.4371
  4.710  -41.2544    5.9218  -41.0745    7.5679  -41.0260    7.5174  -42.5629    5.7133  -40.3183    7.2127  -40.4768    7.2853
  4.720  -40.5341    5.8216  -40.3782    7.4110  -40.3275    7.3600  -41.7859    5.6093  -39.6401    7.0714  -39.8013    7.1458
  4.730  -39.8317    5.7312  -39.6978    7.2667  -39.6446    7.2151  -41.0303    5.5158  -38.9764    6.9416  -39.1405    7.0179
  4.740  -39.1461    5.6498  -39.0322    7.1343  -38.9764    7.0819  -40.2945    5.4319  -38.3265    6.8225  -38.4936    6.9008
  4.750  -38.4761    5.5770  -38.3806    7.0129  -38.3220    6.9598  -39.5772    5.3571  -37.6893    6.7137  -37.8597    6.7940
  4.760  -37.8208    5.5122  -37.7421    6.9020  -37.6806    6.8480  -38.8771    5.2908  -37.0642    6.6144  -37.2381    6.6969
  4.770  -37.1792    5.4552  -37.1160    6.8011  -37.0513    6.7461  -38.1931    5.2325  -36.4505    6.5242  -36.6280    6.6089
  4.780  -36.5504    5.4055  -36.5014    6.7095  -36.4335    6.6536  -37.5240    5.1818  -35.8474    6.4428  -36.0288    6.5298
  4.790  -35.9336    5.3628  -35.8977    6.6269  -35.8264    6.5699  -36.8690    5.1383  -35.2542    6.3696  -35.4398    6.4591
  4.800  -35.3281    5.3268  -35.3043    6.5530  -35.2293    6.4948  -36.2271    5.1018  -34.6704    6.3045  -34.8604    6.3964
  4.810  -34.7330    5.2975  -34.7205    6.4873  -34.6416    6.4279  -35.5973    5.0720  -34.0954    6.2470  -34.2900    6.3416
  4.820  -34.1478    5.2745  -34.1457    6.4295  -34.0627    6.3690  -34.9789    5.0487  -33.5285    6.1971  -33.7280    6.2944
  4.830  -33.5717    5.2577  -33.5793    6.3796  -33.4920    6.3177  -34.3711    5.0318  -32.9693    6.1544  -33.1740    6.2545
  4.840  -33.0042    5.2471  -33.0209    6.3372  -32.9290    6.2740  -33.7732    5.0210  -32.4172    6.1188  -32.6275    6.2219
  4.850  -32.4447    5.2426  -32.4698    6.3022  -32.3732    6.2376  -33.1844    5.0163  -31.8717    6.0903  -32.0878    6.1964
  4.860  -31.8927    5.2441  -31.9257    6.2744  -31.8240    6.2084  -32.6042    5.0176  -31.3323    6.0686  -31.5547    6.1779
  4.870  -31.3476    5.2516  -31.3880    6.2539  -31.2811    6.1864  -32.0319    5.0250  -30.7987    6.0538  -31.0277    6.1664
  4.880  -30.8089    5.2651  -30.8564    6.2404  -30.7438    6.1714  -31.4670    5.0383  -30.2703    6.0458  -30.5063    6.1618
  4.890  -30.2763    5.2847  -30.3303    6.2341  -30.2119    6.1635  -30.9088    5.0576  -29.7467    6.0446  -29.9902    6.1642
  4.900  -29.7491    5.3104  -29.8094    6.2348  -29.6848    6.1626  -30.3569    5.0830  -29.2276    6.0502  -29.4790    6.1735
  4.910  -29.2272    5.3423  -29.2934    6.2427  -29.1622    6.1688  -29.8108    5.1146  -28.7125    6.0627  -28.9723    6.1899
  4.920  -28.7099    5.3805  -28.7818    6.2578  -28.6437    6.1822  -29.2699    5.1524  -28.2011    6.0822  -28.4698    6.2135
  4.930  -28.1971    5.4253  -28.2743    6.2802  -28.1289    6.2028  -28.7339    5.1967  -27.6929    6.1088  -27.9712    6.2443
  4.940  -27.6883    5.4767  -27.7706    6.3100  -27.6174    6.2307  -28.2023    5.2475  -27.1877    6.1427  -27.4762    6.2825
  4.950  -27.1832    5.5349  -27.2704    6.3474  -27.1090    6.2662  -27.6746    5.3050  -26.6851    6.1839  -26.9845    6.3283
  4.960  -26.6815    5.6002  -26.7735    6.3925  -26.6034    6.3095  -27.1506    5.3696  -26.1848    6.2328  -26.4958    6.3819
  4.970  -26.1830    5.6729  -26.2794    6.4456  -26.1001    6.3606  -26.6298    5.4413  -25.6865    6.2895  -26.0099    6.4436
  4.980  -25.6873    5.7531  -25.7881    6.5069  -25.5990    6.4198  -26.1118    5.5206  -25.1898    6.3544  -25.5265    6.5136
  4.990  -25.1943    5.8413  -25.2993    6.5767  -25.0997    6.4875  -25.5965    5.6077  -24.6946    6.4277  -25.0456    6.5922
  5.000  -24.7038    5.9377  -24.8128    6.6552  -24.6021    6.5640  -25.0833    5.7030  -24.2005    6.5098  -24.5669    6.6799
  5.010  -24.2155    6.0426  -24.3285    6.7429  -24.1059    6.6495  -24.5721    5.8068  -23.7073    6.6010  -24.0902    6.7769
  5.020  -23.7294    6.1565  -23.8462    6.8400  -23.6109    6.7444  -24.0626    5.9196  -23.2147    6.7017  -23.6156    6.8836
  5.030  -23.2453    6.2798  -23.3658    6.9469  -23.1169    6.8490  -23.5545    6.0417  -22.7227    6.8124  -23.1428    7.0006
  5.040  -22.7633    6.4128  -22.8874    7.0640  -22.6238    6.9639  -23.0477    6.1737  -22.2309    6.9336  -22.6720    7.1282
  5.050  -22.2832    6.5560  -22.4108    7.1918  -22.1315    7.0894  -22.5420    6.3161  -21.7393    7.0657  -22.2031    7.2670
  5.060  -21.8052    6.7099  -21.9362    7.3307  -21.6399    7.2260  -22.0372    6.4693  -21.2476    7.2093  -21.7362    7.4175
  5.070  -21.3292    6.8747  -21.4637    7.4811  -21.1489    7.3742  -21.5332    6.6340  -20.7558    7.3649  -21.2715    7.5802
  5.080  -20.8554    7.0511  -20.9932    7.6435  -20.6585    7.5343  -21.0298    6.8106  -20.2638    7.5333  -20.8092    7.7558
  5.090  -20.3840    7.2393  -20.5252    7.8182  -20.1687    7.7070  -20.5271    6.9999  -19.7716    7.7149  -20.3495    7.9446
  5.100  -19.9152    7.4397  -20.0597    8.0057  -19.6795    7.8925  -20.0250    7.2024  -19.2790    7.9105  -19.8929    8.1474
  5.110  -19.4492    7.6527  -19.5971    8.2063  -19.1908    8.0915  -19.5234    7.4188  -18.7861    8.1207  -19.4397    8.3646
  5.120  -18.9862    7.8785  -19.1376    8.4203  -18.7027    8.3043  -19.0223    7.6496  -18.2929    8.3463  -18.9904    8.5967
  5.130  -18.5264    8.1172  -18.6817    8.6480  -18.2151    8.5313  -18.5218    7.8956  -17.7992    8.5879  -18.5458    8.8442
  5.140  -18.0701    8.3689  -18.2295    8.8894  -17.7279    8.7728  -18.0216    8.1573  -17.3051    8.8464  -18.1064    9.1075
  5.150  -17.6172    8.6335  -17.7814    9.1446  -17.2408    9.0294  -17.5217    8.4355  -16.8103    9.1226  -17.6730    9.3867
  5.160  -17.1678    8.9108  -17.3374    9.4134  -16.7534    9.3013  -17.0218    8.7310  -16.3147    9.4174  -17.2463    9.6820
  5.170  -16.7213    9.2005  -16.8976    9.6956  -16.2651    9.5889  -16.5216    9.0444  -15.8179    9.7318  -16.8270    9.9933
  5.180  -16.2771    9.5024  -16.4615    9.9910  -15.7749    9.8929  -16.0203    9.3769  -15.3195   10.0671  -16.4158   10.3203
  5.190  -15.8340    9.8160  -16.0284   10.2992  -15.2814   10.2141  -15.5173    9.7295  -14.8187   10.4247  -16.0133   10.6626
  5.200  -15.3899   10.1413  -15.5971   10.6199  -14.7830   10.5537  -15.0114   10.1040  -14.3147   10.8066  -15.6195   11.0195
  5.210  -14.9422   10.4787  -15.1657   10.9533  -14.2774   10.9139  -14.5011   10.5025  -13.8065   11.2154  -15.2344   11.3901
  5.220  -14.4873   10.8292  -14.7316   11.2998  -13.7622   11.2974  -13.9849   10.9283  -13.2930   11.6547  -14.8572   11.7735
  5.230  -14.0208   11.1955  -14.2915   11.6611  -13.2348   11.7086  -13.4612   11.3856  -12.7735   12.1291  -14.4863   12.1689
  5.240  -13.5375   11.5824  -13.8415   12.0401  -12.6929   12.1536  -12.9288   11.8805  -12.2479   12.6446  -14.1194   12.5758
  5.250  -13.0327   11.9973  -13.3776   12.4420  -12.1354   12.6401  -12.3875   12.4208  -11.7173   13.2088  -13.7528   12.9948
  5.260  -12.5028   12.4515  -12.8964   12.8743  -11.5627   13.1780  -11.8395   13.0165  -11.1853   13.8304  -13.3824   13.4278
  5.270  -11.9480   12.9593  -12.3964   13.3474  -10.9784   13.7785  -11.2904   13.6786  -10.6584   14.5189  -13.0032   13.8790
  5.280  -11.3739   13.5376  -11.8798   13.8739  -10.3895   14.4532  -10.7504   14.4184  -10.1472   15.2831  -12.6108   14.3554
  5.290  -10.7931   14.2020  -11.3538   14.4667   -9.8074   15.2126  -10.2348   15.2443   -9.6658   16.1288  -12.2026   14.8668
  5.300  -10.2251   14.9637  -10.8304   15.1366   -9.2470   16.0643   -9.7629   16.1595   -9.2309   17.0577  -11.7789   15.4255
  5.310   -9.6926   15.8261  -10.3253   15.8899   -8.7252   17.0114   -9.3546   17.1602   -8.8594   18.0657  -11.3444   16.0449
  5.320   -9.2172   16.7842   -9.8545   16.7271   -8.2587   18.0526   -9.0264   18.2360   -8.5651   19.1441  -10.9083   16.7380
  5.330   -8.8153   17.8274   -9.4318   17.6446   -7.8623   19.1833   -8.7892   19.3731   -8.3577   20.2816  -10.4838   17.5152
  5.340   -8.4971   18.9434   -9.0676   18.6374   -7.5485   20.3973   -8.6475   20.5583   -8.2421   21.4677  -10.0871   18.3839
  5.350   -8.2681   20.1220   -8.7693   19.7009   -7.3274   21.6884   -8.6023   21.7820   -8.2207   22.6946   -9.7360   19.3477
  5.360   -8.1318   21.3564   -8.5439   20.8326   -7.2086   23.0515   -8.6543   23.0385   -8.2958   23.9573   -9.4487   20.4071
  5.370   -8.0927   22.6431   -8.3994   22.0318   -7.2028   24.4828   -8.8060   24.3255   -8.4718   25.2537   -9.2438   21.5593
  5.380   -8.1580   23.9800   -8.3465   23.2983   -7.3228   25.9782   -9.0637   25.6413   -8.7560   26.5817   -9.1399   22.7992
  5.390   -8.3382   25.3651   -8.3986   24.6307   -7.5846   27.5322   -9.4370   26.9832   -9.1594   27.9380   -9.1560   24.1190
  5.400   -8.6475   26.7940   -8.5725   26.0254   -8.0072   29.1357   -9.9388   28.3456   -9.6958   29.3164   -9.3113   25.5076
  5.410   -9.1027   28.2584   -8.8872   27.4748   -8.6114   30.7749  -10.5835   29.7185  -10.3806   30.7058   -9.6249   26.9504
  5.420   -9.7218   29.7451   -9.3631   28.9664   -9.4189   32.4288  -11.3861   31.0866  -11.2298   32.0898  -10.1156   28.4283
  5.430  -10.5230   31.2345  -10.0207   30.4815  -10.4496   34.0693  -12.3602   32.4291  -12.2573   33.4459  -10.8006   29.9170
  5.440  -11.5222   32.7003  -10.8790   31.9946  -11.7196   35.6597  -13.5160   33.7193  -13.4740   34.7455  -11.6939   31.3866
  5.450  -12.7308   34.1096  -11.9529   33.4733  -13.2376   37.1558  -14.8586   34.9253  -14.8845   35.9546  -12.8046   32.8018
  5.460  -14.1531   35.4237  -13.2510   34.8786  -15.0020   38.5072  -16.3857   36.0113  -16.4858   37.0354  -14.1348   34.1222
  5.470  -15.7845   36.5998  -14.7733   36.1664  -16.9982   39.6606  -18.0860   36.9399  -18.2653   37.9479  -15.6771   35.3044
  5.480  -17.6089   37.5938  -16.5083   37.2898  -19.1964   40.5635  -19.9385   37.6742  -20.1996   38.6534  -17.4133   36.3044
  5.490  -19.5985   38.3640  -18.4321   38.2027  -21.5518   41.1696  -21.9119   38.1815  -22.2546   39.1177  -19.3134   37.0812
  5.500  -21.7137   38.8747  -20.5080   38.8641  -24.0063   41.4440  -23.9662   38.4361  -24.3870   39.3145  -21.3362   37.6006
  5.510  -23.9054   39.1002  -22.6880   39.2420  -26.4924   41.3679  -26.0548   38.4228  -26.5462   39.2288  -23.4314   37.8388
  5.520  -26.1185   39.0279  -24.9160   39.3170  -28.9387   40.9410  -28.1279   38.1377  -28.6785   38.8584  -25.5434   37.7858
  5.530  -28.2956   38.6595  -27.1318   39.0854  -31.2767   40.1820  -30.1360   37.5898  -30.7314   38.2149  -27.6155   37.4459
  5.540  -30.3827   38.0112  -29.2769   38.5587  -33.4465   39.1264  -32.0342   36.7994  -32.6573   37.3224  -29.5951   36.8378
  5.550  -32.3323   37.1113  -31.2990   37.7628  -35.4015   37.8225  -33.7848   35.7964  -34.4176   36.2150  -31.4374   35.9918
  5.560  -34.1073   35.9975  -33.1553   36.7342  -37.1106   36.3255  -35.3594   34.6170  -35.9840   34.9334  -33.1083   34.9467
  5.570  -35.6820   34.7129  -34.8158   35.5168  -38.5586   34.6927  -36.7402   33.3009  -37.3400   33.5212  -34.5859   33.7455
  5.580  -37.0427   33.3021  -36.2626   34.1570  -39.7446   32.9785  -37.9191   31.8877  -38.4800   32.0213  -35.8596   32.4317
  5.590  -38.1861   31.8079  -37.4900   32.7000  -40.6792   31.2314  -38.8966   30.4148  -39.4076   30.4736  -36.9293   31.0461
  5.600  -39.1179   30.2692  -38.5019   31.1872  -41.3814   29.4917  -39.6805   28.9156  -40.1339   28.9127  -37.8027   29.6249
  5.610  -39.8501   28.7194  -39.3098   29.6543  -41.8750   27.7909  -40.2834   27.4181  -40.6749   27.3670  -38.4935   28.1982
  5.620  -40.3993   27.1858  -39.9301   28.1304  -42.1866   26.1525  -40.7214   25.9452  -41.0496   25.8590  -39.0186   26.7898
  5.630  -40.7844   25.6893  -40.3821   26.6381  -42.3429   24.5920  -41.0122   24.5144  -41.2783   24.4050  -39.3969   25.4176
  5.640  -41.0252   24.2456  -40.6861   25.1939  -42.3693   23.1188  -41.1740   23.1384  -41.3811   23.0163  -39.6470   24.0942
  5.650  -41.1414   22.8654  -40.8620   23.8090  -42.2890   21.7373  -41.2245   21.8258  -41.3772   21.6999  -39.7870   22.8277
  5.660  -41.1513   21.5552  -40.9286   22.4905  -42.1225   20.4480  -41.1803   20.5818  -41.2843   20.4591  -39.8335   21.6228
  5.670  -41.0719   20.3186  -40.9028   21.2420  -41.8874   19.2487  -41.0567   19.4090  -41.1179   19.2947  -39.8011   20.4813
  5.680  -40.9184   19.1565  -40.7998   20.0646  -41.5986   18.1354  -40.8673   18.3077  -40.8919   18.2055  -39.7026   19.4034
  5.690  -40.7040   18.0682  -40.6327   18.9578  -41.2682   17.1032  -40.6242   17.2768  -40.6178   17.1891  -39.5492   18.3879
  5.700  -40.4404   17.0514  -40.4130   17.9197  -40.9063   16.1466  -40.3377   16.3140  -40.3058   16.2420  -39.3501   17.4327
  5.710  -40.1374   16.1033  -40.1503   16.9477  -40.5208   15.2600  -40.0168   15.4165  -39.9642   15.3605  -39.1134   16.5353
  5.720  -39.8034   15.2202  -39.8529   16.0388  -40.1181   14.4378  -39.6692   14.5806  -39.5999   14.5403  -38.8459   15.6929
  5.730  -39.4455   14.3985  -39.5278   15.1896  -39.7035   13.6750  -39.3011   13.8028  -39.2187   13.7775  -38.5534   14.9028
  5.740  -39.0696   13.6341  -39.1809   14.3967  -39.2809   12.9667  -38.9179   13.0793  -38.8254   13.0679  -38.2406   14.1619
  5.750  -38.6807   12.9233  -38.8173   13.6567  -38.8537   12.3083  -38.5242   12.4063  -38.4238   12.4076  -37.9119   13.4676
  5.760  -38.2827   12.2620  -38.4412   12.9661  -38.4245   11.6960  -38.1234   11.7801  -38.0172   11.7929  -37.5709   12.8169
  5.770  -37.8791   11.6468  -38.0561   12.3216  -37.9954   11.1258  -37.7187   11.1973  -37.6081   11.2204  -37.2206   12.2072
  5.780  -37.4726   11.0740  -37.6652   11.7202  -37.5681   10.5946  -37.3125   10.6546  -37.1988   10.6868  -36.8637   11.6359
  5.790  -37.0655   10.5406  -37.2709   11.1587  -37.1440   10.0991  -36.9068   10.1488  -36.7908   10.1891  -36.5024   11.1005
  5.800  -36.6596   10.0434  -36.8753   10.6344  -36.7242    9.6366  -36.5032    9.6772  -36.3856    9.7245  -36.1386   10.5987
  5.810  -36.2563    9.5795  -36.4802   10.1445  -36.3095    9.2044  -36.1029    9.2370  -35.9843    9.2904  -35.7740   10.1282
  5.820  -35.8567    9.1465  -36.0870    9.6866  -35.9006    8.8003  -35.7069    8.8257  -35.5877    8.8845  -35.4100    9.6869
  5.830  -35.4619    8.7418  -35.6968    9.2582  -35.4981    8.4221  -35.3161    8.4411  -35.1966    8.5047  -35.0476    9.2728
  5.840  -35.0725    8.3633  -35.3106    8.8572  -35.1024    8.0678  -34.9311    8.0812  -34.8115    8.1488  -34.6878    8.8840
  5.850  -34.6891    8.0090  -34.9291    8.4815  -34.7137    7.7355  -34.5522    7.7439  -34.4328    7.8152  -34.3314    8.5187
  5.860  -34.3121    7.6769  -34.5529    8.1292  -34.3323    7.4237  -34.1799    7.4276  -34.0607    7.5020  -33.9790    8.1754
  5.870  -33.9417    7.3653  -34.1826    7.7987  -33.9582    7.1308  -33.8143    7.1307  -33.6955    7.2078  -33.6311    7.8523
  5.880  -33.5782    7.0728  -33.8183    7.4883  -33.5917    6.8554  -33.4556    6.8517  -33.3372    6.9311  -33.2881    7.5482
  5.890  -33.2217    6.7978  -33.4604    7.1964  -33.2326    6.5961  -33.1039    6.5892  -32.9860    6.6706  -32.9503    7.2617
  5.900  -32.8722    6.5391  -33.1091    6.9219  -32.8810    6.3520  -32.7592    6.3420  -32.6418    6.4252  -32.6180    6.9915
  5.910  -32.5297    6.2954  -32.7643    6.6633  -32.5367    6.1217  -32.4215    6.1090  -32.3047    6.1938  -32.2913    6.7366
  5.920  -32.1943    6.0656  -32.4263    6.4196  -32.1998    5.9044  -32.0907    5.8891  -31.9744    5.9754  -31.9702    6.4958
  5.930  -31.8658    5.8488  -32.0949    6.1896  -31.8701    5.6992  -31.7667    5.6815  -31.6511    5.7689  -31.6549    6.2683
  5.940  -31.5442    5.6440  -31.7701    5.9725  -31.5474    5.5051  -31.4495    5.4853  -31.3345    5.5737  -31.3454    6.0530
  5.950  -31.2294    5.4503  -31.4520    5.7672  -31.2316    5.3215  -31.1390    5.2996  -31.0246    5.3889  -31.0416    5.8492
  5.960  -30.9211    5.2671  -31.1403    5.5730  -30.9226    5.1475  -30.8349    5.1237  -30.7211    5.2138  -30.7436    5.6561
  5.970  -30.6193    5.0935  -30.8350    5.3891  -30.6203    4.9826  -30.5371    4.9570  -30.4240    5.0477  -30.4513    5.4730
  5.980  -30.3239    4.9289  -30.5360    5.2149  -30.3243    4.8262  -30.2456    4.7989  -30.1331    4.8901  -30.1645    5.2992
  5.990  -30.0346    4.7728  -30.2432    5.0496  -30.0346    4.6776  -29.9600    4.6487  -29.8483    4.7404  -29.8833    5.1341
  6.000  -29.7514    4.6244  -29.9563    4.8926  -29.7511    4.5364  -29.6804    4.5060  -29.5693    4.5981  -29.6075    4.9772
  6.010  -29.4740    4.4835  -29.6754    4.7435  -29.4735    4.4021  -29.4065    4.3702  -29.2961    4.4627  -29.3370    4.8279
  6.020  -29.2023    4.3493  -29.4001    4.6017  -29.2016    4.2742  -29.1382    4.2410  -29.0284    4.3337  -29.0718    4.6858
  6.030  -28.9362    4.2217  -29.1305    4.4667  -28.9353    4.1524  -28.8753    4.1179  -28.7662    4.2108  -28.8116    4.5503
  6.040  -28.6755    4.1000  -28.8662    4.3382  -28.6745    4.0363  -28.6176    4.0005  -28.5093    4.0936  -28.5564    4.4212
  6.050  -28.4200    3.9840  -28.6073    4.2157  -28.4190    3.9255  -28.3651    3.8886  -28.2574    3.9817  -28.3060    4.2980
  6.060  -28.1695    3.8733  -28.3535    4.0988  -28.1685    3.8197  -28.1175    3.7816  -28.0105    3.8748  -28.0604    4.1804
  6.070  -27.9241    3.7675  -28.1046    3.9872  -27.9230    3.7185  -27.8747    3.6795  -27.7685    3.7726  -27.8194    4.0680
  6.080  -27.6833    3.6665  -27.8607    3.8805  -27.6824    3.6219  -27.6367    3.5818  -27.5311    3.6749  -27.5829    3.9605
  6.090  -27.4473    3.5699  -27.6214    3.7786  -27.4464    3.5293  -27.4031    3.4883  -27.2982    3.5814  -27.3507    3.8576
  6.100  -27.2157    3.4774  -27.3867    3.6811  -27.2149    3.4407  -27.1739    3.3988  -27.0698    3.4918  -27.1229    3.7592
  6.110  -26.9886    3.3889  -27.1565    3.5877  -26.9878    3.3559  -26.9491    3.3131  -26.8456    3.4059  -26.8991    3.6648
  6.120  -26.7656    3.3040  -26.9305    3.4983  -26.7650    3.2745  -26.7283    3.2309  -26.6256    3.3236  -26.6794    3.5744
  6.130  -26.5468    3.2226  -26.7088    3.4125  -26.5463    3.1964  -26.5116    3.1520  -26.4095    3.2445  -26.4636    3.4876
  6.140  -26.3320    3.1446  -26.4911    3.3303  -26.3316    3.1214  -26.2988    3.0763  -26.1974    3.1686  -26.2517    3.4043
  6.150  -26.1210    3.0696  -26.2774    3.2514  -26.1208    3.0494  -26.0898    3.0036  -25.9891    3.0957  -26.0434    3.3243
  6.160  -25.9138    2.9976  -26.0675    3.1755  -25.9138    2.9802  -25.8845    2.9337  -25.7845    3.0256  -25.8387    3.2474
  6.170  -25.7103    2.9284  -25.8613    3.1027  -25.7104    2.9136  -25.6827    2.8666  -25.5834    2.9582  -25.6376    3.1735
  6.180  -25.5103    2.8618  -25.6587    3.0326  -25.5105    2.8496  -25.4844    2.8019  -25.3858    2.8933  -25.4399    3.1024
  6.190  -25.3137    2.7978  -25.4596    2.9652  -25.3142    2.7879  -25.2895    2.7397  -25.1916    2.8308  -25.2455    3.0339
  6.200  -25.1205    2.7361  -25.2640    2.9003  -25.1211    2.7285  -25.0979    2.6798  -25.0007    2.7705  -25.0543    2.9680
  6.210  -24.9306    2.6767  -25.0717    2.8378  -24.9313    2.6712  -24.9094    2.6220  -24.8129    2.7125  -24.8662    2.9045
  6.220  -24.7438    2.6195  -24.8825    2.7776  -24.7447    2.6160  -24.7240    2.5663  -24.6282    2.6565  -24.6813    2.8432
  6.230  -24.5600    2.5643  -24.6965    2.7195  -24.5611    2.5627  -24.5417    2.5126  -24.4465    2.6024  -24.4993    2.7841
  6.240  -24.3793    2.5110  -24.5136    2.6635  -24.3806    2.5113  -24.3622    2.4608  -24.2678    2.5502  -24.3202    2.7271
  6.250  -24.2014    2.4596  -24.3336    2.6094  -24.2029    2.4616  -24.1857    2.4107  -24.0919    2.4998  -24.1439    2.6720
  6.260  -24.0264    2.4100  -24.1565    2.5572  -24.0280    2.4136  -24.0118    2.3624  -23.9187    2.4511  -23.9703    2.6188
  6.270  -23.8541    2.3620  -23.9822    2.5068  -23.8559    2.3672  -23.8407    2.3156  -23.7483    2.4040  -23.7994    2.5674
  6.280  -23.6845    2.3157  -23.8106    2.4580  -23.6865    2.3223  -23.6722    2.2705  -23.5804    2.3585  -23.6312    2.5177
  6.290  -23.5174    2.2708  -23.6416    2.4109  -23.5196    2.2789  -23.5062    2.2268  -23.4151    2.3144  -23.4654    2.4696
  6.300  -23.3530    2.2275  -23.4752    2.3653  -23.3553    2.2369  -23.3428    2.1845  -23.2523    2.2717  -23.3022    2.4231
  6.310  -23.1909    2.1855  -23.3114    2.3212  -23.1934    2.1962  -23.1817    2.1435  -23.0919    2.2304  -23.1413    2.3780
  6.320  -23.0313    2.1449  -23.1500    2.2784  -23.0339    2.1568  -23.0230    2.1039  -22.9339    2.1903  -22.9828    2.3344
  6.330  -22.8740    2.1055  -22.9909    2.2371  -22.8768    2.1185  -22.8666    2.0655  -22.7781    2.1515  -22.8266    2.2921
  6.340  -22.7190    2.0673  -22.8342    2.1970  -22.7219    2.0815  -22.7125    2.0282  -22.6246    2.1139  -22.6726    2.2512
  6.350  -22.5662    2.0304  -22.6798    2.1581  -22.5693    2.0456  -22.5605    1.9921  -22.4733    2.0774  -22.5208    2.2114
  6.360  -22.4155    1.9945  -22.5275    2.1204  -22.4188    2.0107  -22.4107    1.9571  -22.3241    2.0420  -22.3711    2.1729
  6.370  -22.2670    1.9597  -22.3774    2.0838  -22.2704    1.9769  -22.2629    1.9232  -22.1770    2.0076  -22.2235    2.1355
  6.380  -22.1205    1.9260  -22.2295    2.0483  -22.1241    1.9440  -22.1172    1.8902  -22.0318    1.9742  -22.0779    2.0992
  6.390  -21.9761    1.8932  -22.0835    2.0138  -21.9798    1.9121  -21.9734    1.8581  -21.8887    1.9417  -21.9343    2.0640
  6.400  -21.8336    1.8614  -21.9396    1.9804  -21.8375    1.8811  -21.8316    1.8270  -21.7475    1.9102  -21.7926    2.0297
  6.410  -21.6930    1.8304  -21.7976    1.9479  -21.6970    1.8509  -21.6917    1.7968  -21.6082    1.8795  -21.6528    1.9964
  6.420  -21.5543    1.8004  -21.6575    1.9163  -21.5584    1.8216  -21.5536    1.7674  -21.4707    1.8497  -21.5148    1.9641
  6.430  -21.4174    1.7712  -21.5192    1.8855  -21.4217    1.7931  -21.4173    1.7388  -21.3350    1.8207  -21.3787    1.9326
  6.440  -21.2823    1.7428  -21.3828    1.8557  -21.2867    1.7653  -21.2827    1.7111  -21.2010    1.7925  -21.2443    1.9020
  6.450  -21.1489    1.7151  -21.2481    1.8266  -21.1535    1.7383  -21.1499    1.6840  -21.0688    1.7651  -21.1116    1.8723
  6.460  -21.0172    1.6882  -21.1152    1.7983  -21.0219    1.7120  -21.0188    1.6577  -20.9383    1.7383  -20.9805    1.8433
  6.470  -20.8872    1.6621  -20.9840    1.7708  -20.8920    1.6864  -20.8893    1.6321  -20.8093    1.7123  -20.8512    1.8151
  6.480  -20.7588    1.6366  -20.8544    1.7439  -20.7638    1.6614  -20.7614    1.6071  -20.6820    1.6869  -20.7234    1.7876
  6.490  -20.6321    1.6118  -20.7265    1.7178  -20.6371    1.6371  -20.6351    1.5828  -20.5563    1.6622  -20.5972    1.7608
  6.500  -20.5068    1.5876  -20.6001    1.6924  -20.5120    1.6134  -20.5103    1.5592  -20.4320    1.6381  -20.4725    1.7348
  6.510  -20.3831    1.5640  -20.4753    1.6676  -20.3884    1.5903  -20.3870    1.5361  -20.3093    1.6146  -20.3494    1.7093
  6.520  -20.2609    1.5410  -20.3520    1.6434  -20.2663    1.5678  -20.2652    1.5136  -20.1881    1.5916  -20.2277    1.6846
  6.530  -20.1401    1.5187  -20.2301    1.6198  -20.1456    1.5458  -20.1448    1.4916  -20.0683    1.5693  -20.1074    1.6604
  6.540  -20.0208    1.4968  -20.1098    1.5968  -20.0264    1.5244  -20.0259    1.4702  -19.9498    1.5475  -19.9886    1.6368
  6.550  -19.9028    1.4755  -19.9908    1.5744  -19.9085    1.5034  -19.9083    1.4494  -19.8328    1.5262  -19.8711    1.6138
  6.560  -19.7863    1.4547  -19.8732    1.5525  -19.7921    1.4830  -19.7921    1.4290  -19.7171    1.5054  -19.7550    1.5913
  6.570  -19.6710    1.4344  -19.7570    1.5311  -19.6769    1.4630  -19.6772    1.4091  -19.6028    1.4851  -19.6402    1.5694
  6.580  -19.5571    1.4146  -19.6422    1.5103  -19.5631    1.4435  -19.5636    1.3897  -19.4897    1.4652  -19.5268    1.5480
  6.590  -19.4445    1.3953  -19.5286    1.4899  -19.4506    1.4245  -19.4513    1.3707  -19.3779    1.4458  -19.4146    1.5271
  6.600  -19.3331    1.3764  -19.4163    1.4700  -19.3393    1.4058  -19.3402    1.3522  -19.2673    1.4269  -19.3036    1.5067
  6.610  -19.2230    1.3579  -19.3053    1.4505  -19.2292    1.3876  -19.2303    1.3341  -19.1580    1.4084  -19.1939    1.4867
  6.620  -19.1140    1.3399  -19.1955    1.4315  -19.1204    1.3698  -19.1217    1.3164  -19.0498    1.3903  -19.0854    1.4672
  6.630  -19.0063    1.3222  -19.0869    1.4129  -19.0127    1.3524  -19.0142    1.2991  -18.9429    1.3726  -18.9780    1.4481
  6.640  -18.8997    1.3050  -18.9795    1.3948  -18.9062    1.3354  -18.9079    1.2822  -18.8371    1.3552  -18.8718    1.4295
  6.650  -18.7943    1.2882  -18.8733    1.3770  -18.8009    1.3187  -18.8027    1.2656  -18.7324    1.3383  -18.7668    1.4112
  6.660  -18.6900    1.2717  -18.7682    1.3596  -18.6966    1.3024  -18.6986    1.2494  -18.6288    1.3217  -18.6628    1.3934
  6.670  -18.5868    1.2555  -18.6642    1.3426  -18.5935    1.2865  -18.5956    1.2336  -18.5263    1.3055  -18.5599    1.3759
  6.680  -18.4847    1.2398  -18.5613    1.3259  -18.4914    1.2709  -18.4937    1.2181  -18.4249    1.2896  -18.4582    1.3589
  6.690  -18.3836    1.2243  -18.4595    1.3097  -18.3904    1.2556  -18.3929    1.2030  -18.3245    1.2741  -18.3574    1.3421
  6.700  -18.2836    1.2092  -18.3587    1.2937  -18.2905    1.2406  -18.2930    1.1881  -18.2251    1.2588  -18.2577    1.3258
  6.710  -18.1846    1.1944  -18.2590    1.2781  -18.1915    1.2259  -18.1942    1.1736  -18.1268    1.2439  -18.1590    1.3097
  6.720  -18.0866    1.1799  -18.1603    1.2628  -18.0936    1.2116  -18.0964    1.1594  -18.0294    1.2293  -18.0614    1.2940
  6.730  -17.9895    1.1657  -18.0626    1.2478  -17.9966    1.1975  -17.9996    1.1454  -17.9330    1.2150  -17.9646    1.2786
  6.740  -17.8935    1.1518  -17.9659    1.2331  -17.9006    1.1837  -17.9037    1.1318  -17.8376    1.2009  -17.8689    1.2636
  6.750  -17.7984    1.1382  -17.8701    1.2187  -17.8056    1.1702  -17.8088    1.1184  -17.7431    1.1871  -17.7741    1.2488
  6.760  -17.7043    1.1249  -17.7753    1.2046  -17.7115    1.1569  -17.7148    1.1053  -17.6496    1.1737  -17.6802    1.2343
  6.770  -17.6110    1.1118  -17.6814    1.1908  -17.6183    1.1439  -17.6217    1.0924  -17.5569    1.1604  -17.5873    1.2201
  6.780  -17.5187    1.0990  -17.5885    1.1773  -17.5260    1.1311  -17.5295    1.0798  -17.4652    1.1474  -17.4952    1.2062
  6.790  -17.4272    1.0864  -17.4964    1.1640  -17.4346    1.1186  -17.4382    1.0675  -17.3743    1.1347  -17.4040    1.1926
  6.800  -17.3367    1.0741  -17.4052    1.1509  -17.3441    1.1063  -17.3477    1.0553  -17.2843    1.1222  -17.3137    1.1792
  6.810  -17.2469    1.0620  -17.3149    1.1381  -17.2544    1.0943  -17.2581    1.0435  -17.1951    1.1100  -17.2242    1.1660
  6.820  -17.1581    1.0501  -17.2255    1.1256  -17.1656    1.0825  -17.1694    1.0318  -17.1068    1.0980  -17.1356    1.1532
  6.830  -17.0700    1.0385  -17.1369    1.1133  -17.0776    1.0708  -17.0814    1.0204  -17.0192    1.0861  -17.0478    1.1405
  6.840  -16.9828    1.0270  -17.0491    1.1012  -16.9904    1.0595  -16.9943    1.0091  -16.9325    1.0746  -16.9608    1.1281
  6.850  -16.8964    1.0158  -16.9621    1.0893  -16.9040    1.0483  -16.9080    0.9981  -16.8466    1.0632  -16.8747    1.1159
  6.860  -16.8107    1.0048  -16.8760    1.0777  -16.8184    1.0373  -16.8225    0.9873  -16.7615    1.0520  -16.7893    1.1040
  6.870  -16.7259    0.9940  -16.7906    1.0663  -16.7336    1.0265  -16.7377    0.9767  -16.6772    1.0410  -16.7046    1.0923
  6.880  -16.6418    0.9834  -16.7060    1.0550  -16.6496    1.0159  -16.6537    0.9663  -16.5936    1.0303  -16.6208    1.0807
  6.890  -16.5585    0.9730  -16.6222    1.0440  -16.5663    1.0055  -16.5705    0.9560  -16.5107    1.0197  -16.5377    1.0694
  6.900  -16.4759    0.9628  -16.5391    1.0332  -16.4837    0.9952  -16.4880    0.9460  -16.4286    1.0093  -16.4553    1.0583
  6.910  -16.3940    0.9528  -16.4567    1.0226  -16.4019    0.9852  -16.4062    0.9361  -16.3472    0.9990  -16.3737    1.0474
  6.920  -16.3129    0.9429  -16.3751    1.0121  -16.3208    0.9753  -16.3251    0.9264  -16.2665    0.9890  -16.2927    1.0366
  6.930  -16.2325    0.9332  -16.2942    1.0018  -16.2404    0.9656  -16.2447    0.9168  -16.1865    0.9791  -16.2125    1.0261
  6.940  -16.1527    0.9237  -16.2140    0.9917  -16.1607    0.9560  -16.1651    0.9075  -16.1073    0.9694  -16.1330    1.0157
  6.950  -16.0737    0.9143  -16.1345    0.9818  -16.0816    0.9466  -16.0861    0.8982  -16.0287    0.9599  -16.0541    1.0055
  6.960  -15.9953    0.9051  -16.0557    0.9720  -16.0033    0.9374  -16.0078    0.8892  -15.9507    0.9505  -15.9760    0.9955
  6.970  -15.9176    0.8961  -15.9776    0.9624  -15.9256    0.9283  -15.9301    0.8803  -15.8734    0.9412  -15.8985    0.9857
  6.980  -15.8406    0.8872  -15.9001    0.9530  -15.8486    0.9194  -15.8532    0.8715  -15.7968    0.9322  -15.8216    0.9760
  6.990  -15.7642    0.8784  -15.8233    0.9437  -15.7722    0.9106  -15.7768    0.8629  -15.7208    0.9232  -15.7454    0.9665
  7.000  -15.6884    0.8698  -15.7472    0.9346  -15.6965    0.9020  -15.7011    0.8545  -15.6455    0.9145  -15.6698    0.9571
  7.010  -15.6133    0.8614  -15.6716    0.9256  -15.6214    0.8935  -15.6260    0.8461  -15.5708    0.9058  -15.5949    0.9479
  7.020  -15.5388    0.8531  -15.5967    0.9168  -15.5469    0.8851  -15.5516    0.8379  -15.4966    0.8973  -15.5205    0.9388
  7.030  -15.4649    0.8449  -15.5225    0.9081  -15.4730    0.8768  -15.4777    0.8299  -15.4231    0.8889  -15.4468    0.9299
  7.040  -15.3916    0.8368  -15.4488    0.8996  -15.3997    0.8687  -15.4044    0.8219  -15.3502    0.8807  -15.3737    0.9211
  7.050  -15.3189    0.8289  -15.3757    0.8911  -15.3270    0.8608  -15.3318    0.8141  -15.2779    0.8726  -15.3012    0.9125
  7.060  -15.2468    0.8211  -15.3032    0.8829  -15.2549    0.8529  -15.2597    0.8065  -15.2062    0.8646  -15.2292    0.9040
  7.070  -15.1752    0.8134  -15.2313    0.8747  -15.1834    0.8452  -15.1882    0.7989  -15.1350    0.8567  -15.1579    0.8956
  7.080  -15.1043    0.8059  -15.1600    0.8667  -15.1125    0.8375  -15.1173    0.7915  -15.0644    0.8490  -15.0871    0.8874
  7.090  -15.0339    0.7984  -15.0893    0.8588  -15.0421    0.8300  -15.0469    0.7841  -14.9944    0.8414  -15.0168    0.8793
  7.100  -14.9640    0.7911  -15.0191    0.8510  -14.9722    0.8226  -14.9771    0.7769  -14.9249    0.8339  -14.9471    0.8713
  7.110  -14.8947    0.7839  -14.9494    0.8433  -14.9029    0.8154  -14.9078    0.7698  -14.8559    0.8265  -14.8780    0.8634
  7.120  -14.8260    0.7768  -14.8804    0.8358  -14.8342    0.8082  -14.8390    0.7628  -14.7875    0.8192  -14.8094    0.8557
  7.130  -14.7577    0.7698  -14.8118    0.8283  -14.7659    0.8011  -14.7708    0.7559  -14.7196    0.8120  -14.7413    0.8480
  7.140  -14.6900    0.7629  -14.7438    0.8210  -14.6982    0.7942  -14.7031    0.7492  -14.6522    0.8049  -14.6738    0.8405
  7.150  -14.6228    0.7562  -14.6763    0.8138  -14.6311    0.7873  -14.6360    0.7425  -14.5854    0.7980  -14.6067    0.8331
  7.160  -14.5562    0.7495  -14.6093    0.8067  -14.5644    0.7806  -14.5693    0.7359  -14.5190    0.7911  -14.5402    0.8258
  7.170  -14.4900    0.7429  -14.5428    0.7997  -14.4982    0.7739  -14.5032    0.7294  -14.4532    0.7843  -14.4742    0.8186
  7.180  -14.4243    0.7364  -14.4769    0.7928  -14.4326    0.7673  -14.4375    0.7230  -14.3878    0.7777  -14.4087    0.8116
  7.190  -14.3591    0.7300  -14.4114    0.7860  -14.3674    0.7609  -14.3723    0.7167  -14.3230    0.7711  -14.3436    0.8046
  7.200  -14.2944    0.7238  -14.3464    0.7793  -14.3027    0.7545  -14.3076    0.7105  -14.2586    0.7646  -14.2791    0.7977
  7.210  -14.2302    0.7175  -14.2820    0.7727  -14.2385    0.7482  -14.2434    0.7044  -14.1947    0.7582  -14.2150    0.7909
  7.220  -14.1665    0.7114  -14.2179    0.7661  -14.1747    0.7420  -14.1797    0.6984  -14.1312    0.7519  -14.1514    0.7843
  7.230  -14.1032    0.7054  -14.1544    0.7597  -14.1115    0.7359  -14.1164    0.6924  -14.0683    0.7457  -14.0883    0.7777
  7.240  -14.0404    0.6995  -14.0913    0.7534  -14.0486    0.7298  -14.0536    0.6866  -14.0058    0.7396  -14.0256    0.7712
  7.250  -13.9780    0.6936  -14.0287    0.7471  -13.9863    0.7239  -13.9913    0.6808  -13.9437    0.7336  -13.9634    0.7648
  7.260  -13.9161    0.6878  -13.9666    0.7410  -13.9244    0.7180  -13.9294    0.6751  -13.8821    0.7276  -13.9016    0.7585
  7.270  -13.8547    0.6821  -13.9048    0.7349  -13.8629    0.7122  -13.8679    0.6695  -13.8209    0.7217  -13.8403    0.7522
  7.280  -13.7936    0.6765  -13.8436    0.7289  -13.8019    0.7065  -13.8069    0.6639  -13.7602    0.7160  -13.7794    0.7461
  7.290  -13.7330    0.6710  -13.7828    0.7230  -13.7413    0.7009  -13.7463    0.6585  -13.6998    0.7102  -13.7189    0.7400
  7.300  -13.6729    0.6655  -13.7224    0.7172  -13.6811    0.6953  -13.6861    0.6531  -13.6400    0.7046  -13.6589    0.7341
  7.310  -13.6131    0.6602  -13.6624    0.7114  -13.6214    0.6898  -13.6264    0.6477  -13.5805    0.6990  -13.5993    0.7282
  7.320  -13.5538    0.6548  -13.6029    0.7057  -13.5620    0.6844  -13.5670    0.6425  -13.5214    0.6935  -13.5401    0.7224
  7.330  -13.4949    0.6496  -13.5437    0.7001  -13.5031    0.6791  -13.5081    0.6373  -13.4628    0.6881  -13.4813    0.7166
  7.340  -13.4364    0.6444  -13.4850    0.6946  -13.4446    0.6738  -13.4496    0.6322  -13.4046    0.6828  -13.4229    0.7110
  7.350  -13.3783    0.6393  -13.4267    0.6892  -13.3865    0.6686  -13.3915    0.6272  -13.3467    0.6775  -13.3649    0.7054
  7.360  -13.3206    0.6343  -13.3688    0.6838  -13.3288    0.6635  -13.3338    0.6222  -13.2893    0.6723  -13.3073    0.6999
  7.370  -13.2633    0.6293  -13.3113    0.6785  -13.2715    0.6584  -13.2765    0.6173  -13.2322    0.6672  -13.2502    0.6945
  7.380  -13.2063    0.6244  -13.2542    0.6732  -13.2145    0.6534  -13.2196    0.6125  -13.1756    0.6621  -13.1934    0.6891
  7.390  -13.1498    0.6196  -13.1975    0.6680  -13.1580    0.6485  -13.1630    0.6077  -13.1193    0.6571  -13.1369    0.6838
  7.400  -13.0936    0.6148  -13.1411    0.6629  -13.1018    0.6436  -13.1069    0.6030  -13.0634    0.6522  -13.0809    0.6786
  7.410  -13.0379    0.6101  -13.0852    0.6579  -13.0460    0.6388  -13.0511    0.5983  -13.0078    0.6473  -13.0252    0.6734
  7.420  -12.9825    0.6055  -13.0296    0.6529  -12.9906    0.6341  -12.9957    0.5937  -12.9527    0.6425  -12.9699    0.6683
  7.430  -12.9274    0.6009  -12.9744    0.6480  -12.9356    0.6294  -12.9406    0.5892  -12.8979    0.6377  -12.9150    0.6633
  7.440  -12.8727    0.5964  -12.9195    0.6432  -12.8809    0.6247  -12.8859    0.5847  -12.8434    0.6330  -12.8605    0.6583
  7.450  -12.8184    0.5919  -12.8650    0.6384  -12.8265    0.6202  -12.8316    0.5803  -12.7894    0.6284  -12.8063    0.6534
  7.460  -12.7644    0.5875  -12.8109    0.6336  -12.7726    0.6156  -12.7776    0.5759  -12.7356    0.6238  -12.7524    0.6486
  7.470  -12.7108    0.5831  -12.7571    0.6290  -12.7189    0.6112  -12.7240    0.5716  -12.6822    0.6193  -12.6989    0.6438
  7.480  -12.6575    0.5788  -12.7037    0.6243  -12.6656    0.6068  -12.6707    0.5673  -12.6292    0.6148  -12.6457    0.6391
  7.490  -12.6046    0.5746  -12.6506    0.6198  -12.6127    0.6024  -12.6178    0.5631  -12.5765    0.6104  -12.5929    0.6344
  7.500  -12.5520    0.5704  -12.5979    0.6153  -12.5601    0.5981  -12.5652    0.5590  -12.5241    0.6060  -12.5404    0.6298
  7.510  -12.4998    0.5662  -12.5455    0.6108  -12.5078    0.5939  -12.5129    0.5549  -12.4721    0.6017  -12.4883    0.6253
  7.520  -12.4478    0.5621  -12.4934    0.6064  -12.4559    0.5897  -12.4609    0.5508  -12.4204    0.5975  -12.4365    0.6208
  7.530  -12.3962    0.5581  -12.4417    0.6021  -12.4043    0.5855  -12.4093    0.5468  -12.3690    0.5933  -12.3850    0.6164
  7.540  -12.3449    0.5541  -12.3903    0.5978  -12.3530    0.5814  -12.3580    0.5429  -12.3180    0.5891  -12.3338    0.6120
  7.550  -12.2940    0.5502  -12.3392    0.5936  -12.3020    0.5774  -12.3071    0.5390  -12.2672    0.5850  -12.2830    0.6077
  7.560  -12.2433    0.5463  -12.2885    0.5894  -12.2514    0.5734  -12.2564    0.5351  -12.2168    0.5810  -12.2325    0.6034
  7.570  -12.1930    0.5424  -12.2380    0.5853  -12.2010    0.5694  -12.2061    0.5313  -12.1667    0.5770  -12.1822    0.5992
  7.580  -12.1430    0.5386  -12.1879    0.5812  -12.1510    0.5655  -12.1561    0.5275  -12.1169    0.5730  -12.1323    0.5950
  7.590  -12.0933    0.5349  -12.1381    0.5771  -12.1013    0.5617  -12.1063    0.5238  -12.0674    0.5691  -12.0827    0.5909
  7.600  -12.0439    0.5312  -12.0886    0.5731  -12.0518    0.5579  -12.0569    0.5201  -12.0182    0.5653  -12.0334    0.5868
  7.610  -11.9948    0.5275  -12.0394    0.5692  -12.0027    0.5541  -12.0078    0.5165  -11.9693    0.5614  -11.9844    0.5828
  7.620  -11.9459    0.5239  -11.9905    0.5653  -11.9539    0.5504  -11.9590    0.5129  -11.9207    0.5577  -11.9357    0.5788
  7.630  -11.8974    0.5203  -11.9418    0.5615  -11.9053    0.5467  -11.9104    0.5093  -11.8724    0.5539  -11.8873    0.5749
  7.640  -11.8492    0.5168  -11.8935    0.5576  -11.8571    0.5430  -11.8622    0.5058  -11.8244    0.5503  -11.8392    0.5710
  7.650  -11.8012    0.5133  -11.8455    0.5539  -11.8091    0.5395  -11.8142    0.5024  -11.7766    0.5466  -11.7913    0.5672
  7.660  -11.7536    0.5098  -11.7978    0.5502  -11.7614    0.5359  -11.7665    0.4989  -11.7292    0.5430  -11.7438    0.5634
  7.670  -11.7062    0.5064  -11.7503    0.5465  -11.7140    0.5324  -11.7192    0.4955  -11.6820    0.5395  -11.6965    0.5596
  7.680  -11.6591    0.5030  -11.7031    0.5429  -11.6669    0.5289  -11.6720    0.4922  -11.6351    0.5360  -11.6495    0.5559
  7.690  -11.6122    0.4997  -11.6562    0.5393  -11.6201    0.5255  -11.6252    0.4889  -11.5884    0.5325  -11.6028    0.5523
  7.700  -11.5657    0.4964  -11.6096    0.5357  -11.5735    0.5221  -11.5786    0.4856  -11.5421    0.5291  -11.5563    0.5487
  7.710  -11.5194    0.4932  -11.5633    0.5322  -11.5272    0.5187  -11.5323    0.4824  -11.4960    0.5257  -11.5101    0.5451
  7.720  -11.4733    0.4900  -11.5172    0.5287  -11.4811    0.5154  -11.4863    0.4792  -11.4501    0.5223  -11.4642    0.5416
  7.730  -11.4276    0.4868  -11.4714    0.5253  -11.4353    0.5121  -11.4405    0.4760  -11.4046    0.5190  -11.4186    0.5381
  7.740  -11.3821    0.4836  -11.4258    0.5219  -11.3898    0.5089  -11.3950    0.4729  -11.3593    0.5157  -11.3732    0.5346
  7.750  -11.3368    0.4805  -11.3805    0.5185  -11.3445    0.5057  -11.3497    0.4698  -11.3142    0.5125  -11.3280    0.5312
  7.760  -11.2918    0.4775  -11.3355    0.5152  -11.2995    0.5025  -11.3047    0.4667  -11.2694    0.5093  -11.2831    0.5278
  7.770  -11.2471    0.4744  -11.2907    0.5119  -11.2548    0.4994  -11.2600    0.4637  -11.2249    0.5061  -11.2385    0.5245
  7.780  -11.2026    0.4715  -11.2462    0.5087  -11.2102    0.4963  -11.2154    0.4607  -11.1805    0.5030  -11.1941    0.5212
  7.790  -11.1583    0.4685  -11.2019    0.5055  -11.1660    0.4932  -11.1712    0.4578  -11.1365    0.4999  -11.1499    0.5180
  7.800  -11.1143    0.4656  -11.1579    0.5023  -11.1219    0.4902  -11.1272    0.4549  -11.0927    0.4968  -11.1060    0.5147
  7.810  -11.0705    0.4627  -11.1141    0.4992  -11.0781    0.4872  -11.0834    0.4520  -11.0491    0.4938  -11.0624    0.5116
  7.820  -11.0270    0.4598  -11.0706    0.4961  -11.0346    0.4842  -11.0399    0.4491  -11.0058    0.4908  -11.0190    0.5084
  7.830  -10.9837    0.4570  -11.0273    0.4930  -10.9913    0.4813  -10.9965    0.4463  -10.9626    0.4878  -10.9758    0.5053
  7.840  -10.9406    0.4542  -10.9842    0.4900  -10.9482    0.4784  -10.9535    0.4435  -10.9198    0.4849  -10.9328    0.5022
  7.850  -10.8978    0.4514  -10.9414    0.4870  -10.9053    0.4755  -10.9106    0.4407  -10.8771    0.4820  -10.8901    0.4992
  7.860  -10.8552    0.4487  -10.8988    0.4840  -10.8627    0.4727  -10.8680    0.4380  -10.8347    0.4792  -10.8476    0.4962
  7.870  -10.8128    0.4460  -10.8564    0.4811  -10.8203    0.4699  -10.8256    0.4353  -10.7925    0.4763  -10.8053    0.4932
  7.880  -10.7706    0.4433  -10.8143    0.4782  -10.7781    0.4672  -10.7835    0.4326  -10.7505    0.4736  -10.7633    0.4903
  7.890  -10.7287    0.4407  -10.7724    0.4753  -10.7362    0.4644  -10.7415    0.4300  -10.7088    0.4708  -10.7215    0.4874
  7.900  -10.6870    0.4381  -10.7307    0.4725  -10.6944    0.4617  -10.6998    0.4274  -10.6673    0.4681  -10.6799    0.4845
  7.910  -10.6455    0.4355  -10.6892    0.4697  -10.6529    0.4590  -10.6583    0.4248  -10.6259    0.4654  -10.6385    0.4817
  7.920  -10.6042    0.4330  -10.6479    0.4669  -10.6116    0.4564  -10.6170    0.4222  -10.5848    0.4627  -10.5973    0.4789
  7.930  -10.5631    0.4305  -10.6069    0.4641  -10.5705    0.4538  -10.5759    0.4197  -10.5439    0.4601  -10.5563    0.4761
  7.940  -10.5222    0.4280  -10.5661    0.4614  -10.5296    0.4512  -10.5350    0.4172  -10.5032    0.4575  -10.5155    0.4734
  7.950  -10.4816    0.4255  -10.5255    0.4587  -10.4889    0.4486  -10.4944    0.4147  -10.4628    0.4549  -10.4750    0.4707
  7.960  -10.4411    0.4231  -10.4851    0.4561  -10.4484    0.4461  -10.4539    0.4123  -10.4225    0.4523  -10.4346    0.4680
  7.970  -10.4008    0.4207  -10.4449    0.4535  -10.4081    0.4436  -10.4136    0.4099  -10.3824    0.4498  -10.3945    0.4653
  7.980  -10.3607    0.4183  -10.4049    0.4509  -10.3680    0.4411  -10.3736    0.4075  -10.3425    0.4473  -10.3545    0.4627
  7.990  -10.3209    0.4160  -10.3651    0.4483  -10.3281    0.4387  -10.3337    0.4051  -10.3028    0.4449  -10.3148    0.4601
  8.000  -10.2812    0.4137  -10.3255    0.4458  -10.2884    0.4363  -10.2940    0.4028  -10.2633    0.4425  -10.2752    0.4576
  8.010  -10.2417    0.4114  -10.2861    0.4432  -10.2489    0.4339  -10.2545    0.4005  -10.2240    0.4401  -10.2359    0.4551
  8.020  -10.2024    0.4091  -10.2469    0.4408  -10.2096    0.4316  -10.2152    0.3982  -10.1849    0.4377  -10.1967    0.4526
  8.030  -10.1633    0.4069  -10.2079    0.4383  -10.1705    0.4292  -10.1761    0.3959  -10.1460    0.4353  -10.1577    0.4501
  8.040  -10.1244    0.4047  -10.1691    0.4359  -10.1315    0.4269  -10.1372    0.3937  -10.1073    0.4330  -10.1189    0.4477
  8.050  -10.0856    0.4025  -10.1304    0.4335  -10.0928    0.4246  -10.0985    0.3915  -10.0687    0.4307  -10.0803    0.4453
  8.060  -10.0471    0.4004  -10.0920    0.4311  -10.0542    0.4224  -10.0599    0.3893  -10.0303    0.4285  -10.0419    0.4429
  8.070  -10.0087    0.3982  -10.0537    0.4287  -10.0158    0.4202  -10.0216    0.3871   -9.9921    0.4262  -10.0036    0.4405
  8.080   -9.9705    0.3961  -10.0157    0.4264   -9.9775    0.4180   -9.9834    0.3850   -9.9541    0.4240   -9.9655    0.4382
  8.090   -9.9324    0.3941   -9.9778    0.4241   -9.9395    0.4158   -9.9453    0.3829   -9.9163    0.4219   -9.9276    0.4359
  8.100   -9.8946    0.3920   -9.9400    0.4219   -9.9016    0.4137   -9.9075    0.3808   -9.8786    0.4197   -9.8899    0.4337
  8.110   -9.8569    0.3900   -9.9025    0.4196   -9.8639    0.4116   -9.8698    0.3787   -9.8411    0.4176   -9.8523    0.4314
  8.120   -9.8193    0.3880   -9.8651    0.4174   -9.8263    0.4095   -9.8323    0.3767   -9.8038    0.4155   -9.8149    0.4292
  8.130   -9.7820    0.3860   -9.8279    0.4152   -9.7889    0.4074   -9.7949    0.3747   -9.7666    0.4134   -9.7777    0.4271
  8.140   -9.7448    0.3841   -9.7909    0.4130   -9.7517    0.4054   -9.7577    0.3727   -9.7296    0.4114   -9.7406    0.4249
  8.150   -9.7077    0.3822   -9.7541    0.4109   -9.7146    0.4034   -9.7207    0.3707   -9.6928    0.4094   -9.7037    0.4228
  8.160   -9.6709    0.3803   -9.7174    0.4088   -9.6777    0.4014   -9.6838    0.3687   -9.6561    0.4074   -9.6670    0.4207
  8.170   -9.6341    0.3784   -9.6809    0.4067   -9.6410    0.3994   -9.6471    0.3668   -9.6195    0.4054   -9.6304    0.4186
  8.180   -9.5976    0.3766   -9.6445    0.4046   -9.6044    0.3975   -9.6106    0.3649   -9.5832    0.4035   -9.5940    0.4166
  8.190   -9.5611    0.3748   -9.6083    0.4026   -9.5679    0.3956   -9.5742    0.3630   -9.5470    0.4016   -9.5577    0.4146
  8.200   -9.5249    0.3730   -9.5722    0.4006   -9.5316    0.3937   -9.5379    0.3612   -9.5109    0.3997   -9.5216    0.4126
  8.210   -9.4887    0.3712   -9.5364    0.3986   -9.4955    0.3918   -9.5018    0.3593   -9.4750    0.3978   -9.4856    0.4107
  8.220   -9.4527    0.3695   -9.5006    0.3966   -9.4595    0.3900   -9.4659    0.3575   -9.4392    0.3960   -9.4498    0.4087
  8.230   -9.4169    0.3678   -9.4650    0.3946   -9.4236    0.3882   -9.4300    0.3557   -9.4035    0.3942   -9.4141    0.4068
  8.240   -9.3812    0.3661   -9.4296    0.3927   -9.3879    0.3864   -9.3944    0.3540   -9.3681    0.3924   -9.3785    0.4049
  8.250   -9.3456    0.3644   -9.3943    0.3908   -9.3523    0.3846   -9.3588    0.3522   -9.3327    0.3906   -9.3431    0.4031
  8.260   -9.3102    0.3628   -9.3592    0.3890   -9.3168    0.3829   -9.3234    0.3505   -9.2975    0.3889   -9.3079    0.4013
  8.270   -9.2749    0.3612   -9.3242    0.3871   -9.2815    0.3812   -9.2882    0.3488   -9.2624    0.3872   -9.2727    0.3995
  8.280   -9.2397    0.3596   -9.2893    0.3853   -9.2463    0.3795   -9.2530    0.3471   -9.2275    0.3855   -9.2377    0.3977
  8.290   -9.2047    0.3580   -9.2546    0.3835   -9.2112    0.3779   -9.2180    0.3455   -9.1926    0.3839   -9.2029    0.3960
  8.300   -9.1698    0.3565   -9.2200    0.3817   -9.1763    0.3763   -9.1831    0.3439   -9.1580    0.3823   -9.1681    0.3943
  8.310   -9.1350    0.3550   -9.1856    0.3799   -9.1415    0.3747   -9.1484    0.3422   -9.1234    0.3807   -9.1335    0.3926
  8.320   -9.1003    0.3535   -9.1512    0.3782   -9.1068    0.3731   -9.1137    0.3407   -9.0890    0.3791   -9.0990    0.3910
  8.330   -9.0658    0.3521   -9.1171    0.3765   -9.0722    0.3715   -9.0792    0.3391   -9.0546    0.3776   -9.0647    0.3893
  8.340   -9.0313    0.3506   -9.0830    0.3748   -9.0377    0.3700   -9.0448    0.3376   -9.0204    0.3761   -9.0304    0.3878
  8.350   -8.9970    0.3492   -9.0491    0.3732   -9.0034    0.3685   -9.0106    0.3360   -8.9863    0.3746   -8.9963    0.3862
  8.360   -8.9628    0.3479   -9.0153    0.3715   -8.9691    0.3671   -8.9764    0.3345   -8.9524    0.3731   -8.9623    0.3847
  8.370   -8.9287    0.3465   -8.9816    0.3699   -8.9350    0.3656   -8.9423    0.3331   -8.9185    0.3717   -8.9284    0.3831
  8.380   -8.8947    0.3452   -8.9480    0.3684   -8.9010    0.3642   -8.9084    0.3316   -8.8848    0.3703   -8.8946    0.3817
  8.390   -8.8608    0.3439   -8.9146    0.3668   -8.8671    0.3628   -8.8745    0.3302   -8.8511    0.3690   -8.8609    0.3802
  8.400   -8.8270    0.3427   -8.8813    0.3653   -8.8332    0.3615   -8.8408    0.3288   -8.8176    0.3676   -8.8273    0.3788
  8.410   -8.7933    0.3414   -8.8481    0.3638   -8.7995    0.3601   -8.8071    0.3274   -8.7841    0.3663   -8.7938    0.3774
  8.420   -8.7597    0.3402   -8.8150    0.3623   -8.7658    0.3588   -8.7736    0.3261   -8.7508    0.3650   -8.7604    0.3761
  8.430   -8.7262    0.3391   -8.7820    0.3608   -8.7323    0.3576   -8.7401    0.3247   -8.7175    0.3638   -8.7271    0.3748
  8.440   -8.6928    0.3379   -8.7491    0.3594   -8.6988    0.3563   -8.7067    0.3234   -8.6844    0.3626   -8.6939    0.3735
  8.450   -8.6594    0.3368   -8.7163    0.3580   -8.6655    0.3551   -8.6735    0.3222   -8.6513    0.3614   -8.6608    0.3722
  8.460   -8.6261    0.3357   -8.6836    0.3566   -8.6322    0.3540   -8.6403    0.3209   -8.6183    0.3602   -8.6278    0.3710
  8.470   -8.5930    0.3347   -8.6510    0.3552   -8.5989    0.3528   -8.6071    0.3197   -8.5854    0.3591   -8.5949    0.3698
  8.480   -8.5599    0.3337   -8.6186    0.3539   -8.5658    0.3517   -8.5741    0.3185   -8.5526    0.3580   -8.5620    0.3686
  8.490   -8.5268    0.3327   -8.5862    0.3526   -8.5327    0.3506   -8.5411    0.3173   -8.5199    0.3570   -8.5292    0.3675
  8.500   -8.4939    0.3318   -8.5539    0.3513   -8.4997    0.3496   -8.5082    0.3161   -8.4872    0.3560   -8.4965    0.3664
  8.510   -8.4609    0.3308   -8.5217    0.3501   -8.4668    0.3486   -8.4754    0.3150   -8.4546    0.3550   -8.4639    0.3654
  8.520   -8.4281    0.3300   -8.4895    0.3489   -8.4339    0.3476   -8.4427    0.3139   -8.4221    0.3541   -8.4313    0.3644
  8.530   -8.3953    0.3291   -8.4575    0.3477   -8.4011    0.3467   -8.4099    0.3129   -8.3897    0.3532   -8.3988    0.3634
  8.540   -8.3626    0.3283   -8.4255    0.3465   -8.3683    0.3458   -8.3773    0.3118   -8.3573    0.3523   -8.3664    0.3625
  8.550   -8.3299    0.3276   -8.3936    0.3454   -8.3356    0.3449   -8.3447    0.3108   -8.3249    0.3515   -8.3340    0.3616
  8.560   -8.2973    0.3269   -8.3618    0.3443   -8.3029    0.3441   -8.3122    0.3098   -8.2927    0.3507   -8.3017    0.3607
  8.570   -8.2647    0.3262   -8.3301    0.3432   -8.2702    0.3433   -8.2797    0.3089   -8.2604    0.3499   -8.2694    0.3599
  8.580   -8.2321    0.3255   -8.2984    0.3421   -8.2376    0.3426   -8.2472    0.3080   -8.2282    0.3492   -8.2372    0.3592
  8.590   -8.1996    0.3249   -8.2668    0.3411   -8.2051    0.3419   -8.2148    0.3071   -8.1961    0.3486   -8.2050    0.3584
  8.600   -8.1671    0.3244   -8.2353    0.3401   -8.1725    0.3412   -8.1824    0.3062   -8.1640    0.3480   -8.1729    0.3578
  8.610   -8.1346    0.3239   -8.2038    0.3392   -8.1400    0.3406   -8.1500    0.3054   -8.1319    0.3474   -8.1408    0.3571
  8.620   -8.1022    0.3234   -8.1724    0.3383   -8.1075    0.3401   -8.1177    0.3046   -8.0999    0.3469   -8.1087    0.3566
  8.630   -8.0697    0.3230   -8.1410    0.3374   -8.0750    0.3396   -8.0854    0.3039   -8.0679    0.3464   -8.0766    0.3560
  8.640   -8.0373    0.3227   -8.1097    0.3366   -8.0425    0.3391   -8.0530    0.3032   -8.0359    0.3460   -8.0446    0.3556
  8.650   -8.0049    0.3224   -8.0785    0.3358   -8.0100    0.3387   -8.0207    0.3025   -8.0039    0.3457   -8.0126    0.3551
  8.660   -7.9724    0.3222   -8.0472    0.3350   -7.9775    0.3383   -7.9884    0.3019   -7.9719    0.3454   -7.9806    0.3548
  8.670   -7.9400    0.3220   -8.0160    0.3343   -7.9450    0.3380   -7.9561    0.3013   -7.9399    0.3451   -7.9486    0.3545
  8.680   -7.9075    0.3219   -7.9849    0.3336   -7.9125    0.3378   -7.9238    0.3008   -7.9080    0.3450   -7.9166    0.3542
  8.690   -7.8751    0.3218   -7.9537    0.3329   -7.8800    0.3376   -7.8914    0.3003   -7.8760    0.3448   -7.8846    0.3541
  8.700   -7.8425    0.3218   -7.9226    0.3323   -7.8474    0.3375   -7.8591    0.2998   -7.8440    0.3448   -7.8526    0.3540
  8.710   -7.8100    0.3219   -7.8916    0.3317   -7.8148    0.3375   -7.8267    0.2994   -7.8120    0.3448   -7.8205    0.3539
  8.720   -7.7774    0.3221   -7.8605    0.3312   -7.7821    0.3375   -7.7942    0.2991   -7.7800    0.3449   -7.7885    0.3540
  8.730   -7.7448    0.3223   -7.8294    0.3307   -7.7494    0.3376   -7.7617    0.2988   -7.7479    0.3451   -7.7564    0.3541
  8.740   -7.7121    0.3226   -7.7984    0.3303   -7.7166    0.3378   -7.7292    0.2985   -7.7158    0.3453   -7.7242    0.3543
  8.750   -7.6793    0.3230   -7.7673    0.3299   -7.6837    0.3381   -7.6966    0.2984   -7.6836    0.3456   -7.6921    0.3545
  8.760   -7.6464    0.3235   -7.7363    0.3296   -7.6508    0.3384   -7.6639    0.2982   -7.6514    0.3461   -7.6598    0.3549
  8.770   -7.6135    0.3241   -7.7052    0.3293   -7.6178    0.3388   -7.6311    0.2982   -7.6192    0.3466   -7.6275    0.3554
  8.780   -7.5805    0.3248   -7.6741    0.3291   -7.5846    0.3394   -7.5983    0.2982   -7.5868    0.3472   -7.5952    0.3559
  8.790   -7.5473    0.3255   -7.6430    0.3290   -7.5514    0.3400   -7.5653    0.2983   -7.5544    0.3479   -7.5627    0.3566
  8.800   -7.5141    0.3264   -7.6119    0.3289   -7.5180    0.3408   -7.5322    0.2985   -7.5219    0.3487   -7.5302    0.3573
  8.810   -7.4807    0.3275   -7.5808    0.3288   -7.4845    0.3416   -7.4990    0.2987   -7.4893    0.3496   -7.4976    0.3582
  8.820   -7.4472    0.3286   -7.5496    0.3289   -7.4509    0.3426   -7.4657    0.2990   -7.4566    0.3507   -7.4648    0.3592
  8.830   -7.4135    0.3299   -7.5183    0.3290   -7.4170    0.3437   -7.4322    0.2995   -7.4237    0.3519   -7.4319    0.3603
  8.840   -7.3796    0.3313   -7.4870    0.3292   -7.3830    0.3449   -7.3985    0.3000   -7.3908    0.3532   -7.3989    0.3616
  8.850   -7.3456    0.3329   -7.4556    0.3294   -7.3488    0.3463   -7.3647    0.3006   -7.3577    0.3546   -7.3658    0.3630
  8.860   -7.3113    0.3346   -7.4242    0.3297   -7.3144    0.3479   -7.3307    0.3013   -7.3244    0.3563   -7.3325    0.3646
  8.870   -7.2768    0.3365   -7.3927    0.3302   -7.2798    0.3496   -7.2964    0.3022   -7.2909    0.3580   -7.2990    0.3663
  8.880   -7.2421    0.3386   -7.3611    0.3307   -7.2449    0.3515   -7.2619    0.3031   -7.2573    0.3600   -7.2654    0.3682
  8.890   -7.2072    0.3408   -7.3294    0.3313   -7.2098    0.3535   -7.2272    0.3042   -7.2235    0.3621   -7.2315    0.3703
  8.900   -7.1720    0.3433   -7.2975    0.3320   -7.1744    0.3558   -7.1922    0.3055   -7.1894    0.3645   -7.1975    0.3726
  8.910   -7.1365    0.3461   -7.2656    0.3328   -7.1386    0.3583   -7.1569    0.3069   -7.1551    0.3670   -7.1631    0.3751
  8.920   -7.1006    0.3490   -7.2335    0.3337   -7.1026    0.3610   -7.1212    0.3085   -7.1206    0.3698   -7.1286    0.3779
  8.930   -7.0644    0.3522   -7.2013    0.3347   -7.0661    0.3640   -7.0853    0.3102   -7.0858    0.3728   -7.0937    0.3808
  8.940   -7.0279    0.3558   -7.1689    0.3359   -7.0293    0.3672   -7.0489    0.3121   -7.0507    0.3761   -7.0586    0.3841
  8.950   -6.9910    0.3596   -7.1364    0.3372   -6.9921    0.3708   -7.0122    0.3143   -7.0152    0.3797   -7.0232    0.3876
  8.960   -6.9536    0.3637   -7.1037    0.3386   -6.9544    0.3746   -6.9750    0.3166   -6.9795    0.3836   -6.9874    0.3915
  8.970   -6.9158    0.3682   -7.0707    0.3402   -6.9162    0.3789   -6.9373    0.3193   -6.9433    0.3879   -6.9512    0.3957
  8.980   -6.8775    0.3731   -7.0376    0.3420   -6.8775    0.3835   -6.8992    0.3222   -6.9068    0.3924   -6.9147    0.4002
  8.990   -6.8386    0.3785   -7.0042    0.3439   -6.8382    0.3885   -6.8605    0.3253   -6.8699    0.3974   -6.8777    0.4052
  9.000   -6.7992    0.3843   -6.9706    0.3460   -6.7984    0.3939   -6.8212    0.3288   -6.8325    0.4029   -6.8403    0.4105
  9.010   -6.7592    0.3906   -6.9367    0.3483   -6.7579    0.3999   -6.7813    0.3327   -6.7946    0.4087   -6.8024    0.4164
  9.020   -6.7185    0.3975   -6.9025    0.3508   -6.7166    0.4064   -6.7406    0.3369   -6.7562    0.4151   -6.7640    0.4227
  9.030   -6.6772    0.4050   -6.8680    0.3535   -6.6747    0.4135   -6.6993    0.3416   -6.7172    0.4221   -6.7251    0.4297
  9.040   -6.6351    0.4132   -6.8332    0.3565   -6.6318    0.4213   -6.6571    0.3467   -6.6777    0.4297   -6.6855    0.4372
  9.050   -6.5921    0.4222   -6.7980    0.3598   -6.5882    0.4297   -6.6140    0.3524   -6.6375    0.4379   -6.6453    0.4454
  9.060   -6.5483    0.4319   -6.7624    0.3633   -6.5435    0.4390   -6.5700    0.3586   -6.5966    0.4469   -6.6044    0.4544
  9.070   -6.5036    0.4426   -6.7264    0.3671   -6.4979    0.4492   -6.5250    0.3655   -6.5550    0.4567   -6.5628    0.4641
  9.080   -6.4579    0.4544   -6.6899    0.3713   -6.4511    0.4605   -6.4788    0.3731   -6.5127    0.4675   -6.5205    0.4748
  9.090   -6.4111    0.4673   -6.6530    0.3758   -6.4031    0.4728   -6.4315    0.3815   -6.4695    0.4792   -6.4773    0.4865
  9.100   -6.3631    0.4814   -6.6156    0.3808   -6.3538    0.4864   -6.3827    0.3908   -6.4254    0.4921   -6.4332    0.4994
  9.110   -6.3139    0.4970   -6.5776    0.3861   -6.3031    0.5014   -6.3326    0.4012   -6.3803    0.5062   -6.3882    0.5134
  9.120   -6.2634    0.5143   -6.5390    0.3919   -6.2509    0.5180   -6.2809    0.4127   -6.3343    0.5217   -6.3421    0.5289
  9.130   -6.2115    0.5333   -6.4998    0.3982   -6.1970    0.5364   -6.2274    0.4256   -6.2872    0.5388   -6.2950    0.5460
  9.140   -6.1580    0.5544   -6.4599    0.4051   -6.1413    0.5569   -6.1721    0.4399   -6.2390    0.5577   -6.2468    0.5648
  9.150   -6.1030    0.5779   -6.4192    0.4126   -6.0838    0.5797   -6.1147    0.4561   -6.1896    0.5785   -6.1975    0.5856
  9.160   -6.0462    0.6040   -6.3778    0.4208   -6.0241    0.6053   -6.0551    0.4742   -6.1390    0.6016   -6.1469    0.6087
  9.170   -5.9877    0.6331   -6.3355    0.4297   -5.9622    0.6340   -5.9930    0.4947   -6.0871    0.6273   -6.0950    0.6343
  9.180   -5.9273    0.6658   -6.2923    0.4394   -5.8980    0.6662   -5.9283    0.5178   -6.0339    0.6559   -6.0418    0.6628
  9.190   -5.8649    0.7024   -6.2481    0.4500   -5.8312    0.7026   -5.8606    0.5442   -5.9794    0.6878   -5.9873    0.6947
  9.200   -5.8006    0.7437   -6.2028    0.4617   -5.7617    0.7439   -5.7898    0.5742   -5.9236    0.7235   -5.9315    0.7304
  9.210   -5.7343    0.7902   -6.1564    0.4744   -5.6894    0.7909   -5.7154    0.6087   -5.8665    0.7636   -5.8745    0.7704
  9.220   -5.6661    0.8430   -6.1087    0.4884   -5.6141    0.8447   -5.6374    0.6484   -5.8083    0.8086   -5.8163    0.8154
  9.230   -5.5961    0.9030   -6.0596    0.5038   -5.5360    0.9063   -5.5553    0.6944   -5.7492    0.8594   -5.7572    0.8661
  9.240   -5.5247    0.9713   -6.0091    0.5208   -5.4551    0.9774   -5.4691    0.7478   -5.6895    0.9169   -5.6976    0.9235
  9.250   -5.4524    1.0494   -5.9570    0.5395   -5.3717    1.0598   -5.3785    0.8104   -5.6297    0.9820   -5.6378    0.9886
  9.260   -5.3798    1.1389   -5.9032    0.5602   -5.2865    1.1555   -5.2836    0.8841   -5.5705    1.0559   -5.5787    1.0624
  9.270   -5.3081    1.2415   -5.8475    0.5832   -5.2003    1.2674   -5.1847    0.9712   -5.5130    1.1398   -5.5213    1.1462
  9.280   -5.2391    1.3594   -5.7898    0.6088   -5.1151    1.3985   -5.0825    1.0748   -5.4587    1.2350   -5.4670    1.2414
  9.290   -5.1751    1.4947   -5.7298    0.6374   -5.0335    1.5524   -4.9784    1.1984   -5.4096    1.3431   -5.4180    1.3494
  9.300   -5.1196    1.6499   -5.6674    0.6694   -4.9599    1.7334   -4.8751    1.3464   -5.3685    1.4652   -5.3769    1.4714
  9.310   -5.0772    1.8268   -5.6023    0.7055   -4.9006    1.9457   -4.7769    1.5238   -5.3392    1.6023   -5.3477    1.6084
  9.320   -5.0544    2.0271   -5.5344    0.7463   -4.8651    2.1929   -4.6904    1.7357   -5.3264    1.7545   -5.3350    1.7604
  9.330   -5.0595    2.2505   -5.4633    0.7928   -4.8667    2.4769   -4.6262    1.9866   -5.3360    1.9204   -5.3447    1.9263
  9.340   -5.1024    2.4945   -5.3888    0.8461   -4.9231    2.7952   -4.5989    2.2787   -5.3749    2.0967   -5.3837    2.1024
  9.350   -5.1948    2.7523   -5.3109    0.9079   -5.0554    3.1371   -4.6280    2.6083   -5.4498    2.2765   -5.4587    2.2821
  9.360   -5.3475    3.0110   -5.2298    0.9801   -5.2845    3.4800   -4.7354    2.9622   -5.5658    2.4492   -5.5748    2.4547
  9.370   -5.5676    3.2512   -5.1462    1.0651   -5.6233    3.7861   -4.9402    3.3137   -5.7237    2.6004   -5.7330    2.6056
  9.380   -5.8535    3.4477   -5.0618    1.1657   -6.0648    4.0066   -5.2482    3.6225   -5.9176    2.7139   -5.9271    2.7189
  9.390   -6.1908    3.5752   -4.9790    1.2843   -6.5738    4.0951   -5.6425    3.8441   -6.1329    2.7767   -6.1426    2.7813
  9.400   -6.5529    3.6163   -4.9014    1.4232   -7.0903    4.0281   -6.0814    3.9467   -6.3491    2.7837   -6.3589    2.7877
  9.410   -6.9068    3.5685   -4.8329    1.5838   -7.5487    3.8178   -6.5116    3.9254   -6.5455    2.7405   -6.5553    2.7439
  9.420   -7.2237    3.4447   -4.7782    1.7673   -7.9025    3.5076   -6.8876    3.8039   -6.7072    2.6616   -6.7169    2.6643
  9.430   -7.4857    3.2675   -4.7427    1.9746   -8.1353    3.1519   -7.1863    3.6211   -6.8285    2.5652   -6.8378    2.5674
  9.440   -7.6875    3.0613   -4.7331    2.2062   -8.2573    2.7976   -7.4071    3.4149   -6.9119    2.4682   -6.9208    2.4699
  9.450   -7.8333    2.8462   -4.7585    2.4609   -8.2923    2.4755   -7.5638    3.2128   -6.9659    2.3832   -6.9743    2.3845
  9.460   -7.9325    2.6362   -4.8297    2.7347   -8.2672    2.2006   -7.6761    3.0293   -7.0019    2.3174   -7.0097    2.3184
  9.470   -7.9960    2.4391   -4.9586    3.0185   -8.2061    1.9765   -7.7627    2.8682   -7.0321    2.2728   -7.0394    2.2736
  9.480   -8.0340    2.2575   -5.1560    3.2970   -8.1282    1.8002   -7.8385    2.7258   -7.0680    2.2464   -7.0746    2.2471
  9.490   -8.0545    2.0908   -5.4272    3.5479   -8.0476    1.6646   -7.9125    2.5937   -7.1183    2.2308   -7.1244    2.2315
  9.500   -8.0629    1.9363   -5.7682    3.7444   -7.9741    1.5605   -7.9880    2.4620   -7.1877    2.2154   -7.1932    2.2162
  9.510   -8.0618    1.7908   -6.1621    3.8602   -7.9128    1.4776   -8.0620    2.3221   -7.2749    2.1885   -7.2800    2.1895
  9.520   -8.0516    1.6521   -6.5797    3.8776   -7.8647    1.4065   -8.1277    2.1694   -7.3734    2.1407   -7.3779    2.1420
  9.530   -8.0318    1.5194   -6.9857    3.7936   -7.8273    1.3397   -8.1769    2.0042   -7.4724    2.0671   -7.4766    2.0687
  9.540   -8.0018    1.3931   -7.3476    3.6213   -7.7965    1.2726   -8.2035    1.8316   -7.5611    1.9688   -7.5650    1.9707
  9.550   -7.9620    1.2749   -7.6436    3.3847   -7.7676    1.2035   -8.2049    1.6590   -7.6310    1.8517   -7.6347    1.8540
  9.560   -7.9136    1.1660   -7.8650    3.1119   -7.7372    1.1330   -8.1825    1.4935   -7.6778    1.7239   -7.6814    1.7265
  9.570   -7.8586    1.0674   -8.0145    2.8275   -7.7033    1.0628   -8.1400    1.3405   -7.7013    1.5933   -7.7048    1.5963
  9.580   -7.7990    0.9793   -8.1019    2.5499   -7.6652    0.9945   -8.0827    1.2029   -7.7039    1.4663   -7.7075    1.4695
  9.590   -7.7368    0.9013   -8.1394    2.2907   -7.6232    0.9298   -8.0153    1.0817   -7.6894    1.3467   -7.6930    1.3502
  9.600   -7.6735    0.8326   -8.1392    2.0555   -7.5780    0.8693   -7.9419    0.9762   -7.6617    1.2370   -7.6653    1.2406
  9.610   -7.6102    0.7721   -8.1119    1.8462   -7.5305    0.8137   -7.8657    0.8850   -7.6244    1.1378   -7.6281    1.1416
  9.620   -7.5478    0.7190   -8.0660    1.6620   -7.4816    0.7629   -7.7888    0.8066   -7.5806    1.0490   -7.5843    1.0529
  9.630   -7.4868    0.6723   -8.0077    1.5012   -7.4320    0.7169   -7.7129    0.7391   -7.5324    0.9700   -7.5362    0.9740
  9.640   -7.4274    0.6310   -7.9419    1.3611   -7.3822    0.6752   -7.6389    0.6809   -7.4816    0.8999   -7.4855    0.9040
  9.650   -7.3700    0.5944   -7.8718    1.2394   -7.3327    0.6376   -7.5673    0.6307   -7.4296    0.8377   -7.4335    0.8419
  9.660   -7.3145    0.5618   -7.7999    1.1334   -7.2839    0.6036   -7.4983    0.5871   -7.3772    0.7826   -7.3812    0.7868
  9.670   -7.2609    0.5328   -7.7277    1.0409   -7.2359    0.5729   -7.4322    0.5491   -7.3251    0.7336   -7.3291    0.7379
  9.680   -7.2092    0.5068   -7.6562    0.9602   -7.1888    0.5452   -7.3689    0.5158   -7.2736    0.6899   -7.2777    0.6942
  9.690   -7.1594    0.4833   -7.5862    0.8893   -7.1429    0.5200   -7.3083    0.4866   -7.2231    0.6509   -7.2272    0.6553
  9.700   -7.1113    0.4622   -7.5181    0.8270   -7.0980    0.4971   -7.2504    0.4607   -7.1738    0.6160   -7.1779    0.6203
  9.710   -7.0649    0.4430   -7.4522    0.7720   -7.0543    0.4763   -7.1949    0.4378   -7.1257    0.5846   -7.1298    0.5890
  9.720   -7.0200    0.4255   -7.3886    0.7232   -7.0118    0.4573   -7.1417    0.4173   -7.0788    0.5563   -7.0830    0.5607
  9.730   -6.9766    0.4096   -7.3272    0.6799   -6.9703    0.4399   -7.0907    0.3990   -7.0333    0.5307   -7.0375    0.5351
  9.740   -6.9346    0.3950   -7.2681    0.6412   -6.9300    0.4240   -7.0417    0.3825   -6.9891    0.5075   -6.9933    0.5119
  9.750   -6.8939    0.3816   -7.2112    0.6065   -6.8907    0.4094   -6.9945    0.3676   -6.9461    0.4864   -6.9503    0.4908
  9.760   -6.8544    0.3693   -7.1565    0.5754   -6.8524    0.3959   -6.9492    0.3541   -6.9043    0.4671   -6.9086    0.4715
  9.770   -6.8161    0.3579   -7.1038    0.5473   -6.8151    0.3834   -6.9054    0.3418   -6.8637    0.4495   -6.8680    0.4539
  9.780   -6.7788    0.3473   -7.0530    0.5219   -6.7787    0.3719   -6.8631    0.3306   -6.8243    0.4333   -6.8286    0.4377
  9.790   -6.7425    0.3376   -7.0040    0.4989   -6.7432    0.3612   -6.8223    0.3203   -6.7859    0.4184   -6.7902    0.4228
  9.800   -6.7072    0.3285   -6.9568    0.4780   -6.7085    0.3513   -6.7827    0.3109   -6.7485    0.4047   -6.7528    0.4091
  9.810   -6.6728    0.3200   -6.9112    0.4588   -6.6747    0.3420   -6.7444    0.3022   -6.7121    0.3920   -6.7164    0.3964
  9.820   -6.6392    0.3121   -6.8671    0.4413   -6.6416    0.3334   -6.7072    0.2942   -6.6766    0.3803   -6.6810    0.3847
  9.830   -6.6064    0.3047   -6.8244    0.4253   -6.6092    0.3253   -6.6711    0.2867   -6.6420    0.3694   -6.6464    0.3737
  9.840   -6.5744    0.2977   -6.7831    0.4105   -6.5775    0.3177   -6.6359    0.2798   -6.6083    0.3592   -6.6126    0.3636
  9.850   -6.5430    0.2912   -6.7430    0.3969   -6.5465    0.3106   -6.6017    0.2734   -6.5753    0.3497   -6.5796    0.3541
  9.860   -6.5124    0.2850   -6.7042    0.3843   -6.5161    0.3040   -6.5683    0.2673   -6.5430    0.3409   -6.5474    0.3452
  9.870   -6.4823    0.2792   -6.6664    0.3727   -6.4863    0.2977   -6.5358    0.2617   -6.5115    0.3326   -6.5158    0.3370
  9.880   -6.4529    0.2738   -6.6297    0.3619   -6.4571    0.2918   -6.5040    0.2564   -6.4806    0.3249   -6.4850    0.3292
  9.890   -6.4240    0.2686   -6.5940    0.3518   -6.4284    0.2862   -6.4730    0.2515   -6.4504    0.3176   -6.4547    0.3219
  9.900   -6.3957    0.2637   -6.5592    0.3424   -6.4003    0.2809   -6.4426    0.2468   -6.4208    0.3107   -6.4251    0.3150
  9.910   -6.3679    0.2591   -6.5253    0.3337   -6.3726    0.2759   -6.4129    0.2425   -6.3917    0.3042   -6.3961    0.3085
  9.920   -6.3406    0.2547   -6.4922    0.3255   -6.3454    0.2711   -6.3838    0.2383   -6.3633    0.2981   -6.3676    0.3024
  9.930   -6.3137    0.2505   -6.4599    0.3178   -6.3187    0.2666   -6.3552    0.2344   -6.3353    0.2924   -6.3396    0.2966
  9.940   -6.2873    0.2465   -6.4283    0.3106   -6.2924    0.2623   -6.3273    0.2307   -6.3078    0.2869   -6.3121    0.2911
  9.950   -6.2614    0.2427   -6.3974    0.3038   -6.2665    0.2582   -6.2998    0.2271   -6.2808    0.2817   -6.2851    0.2859
  9.960   -6.2358    0.2390   -6.3672    0.2975   -6.2410    0.2543   -6.2728    0.2238   -6.2543    0.2768   -6.2586    0.2810
  9.970   -6.2106    0.2356   -6.3376    0.2915   -6.2158    0.2506   -6.2463    0.2206   -6.2282    0.2721   -6.2325    0.2763
  9.980   -6.1858    0.2322   -6.3086    0.2858   -6.1911    0.2470   -6.2202    0.2175   -6.2025    0.2677   -6.2068    0.2719
  9.990   -6.1613    0.2291   -6.2802    0.2804   -6.1667    0.2436   -6.1946    0.2146   -6.1772    0.2634   -6.1815    0.2676
 10.000   -6.1372    0.2260   -6.2523    0.2753   -6.1426    0.2404   -6.1694    0.2119   -6.1523    0.2594   -6.1566    0.2635
