# Phonon frequencies in cm-1
    1           0.000           0.000           0.000
    2           1.300           1.300           2.536
    3           2.599           2.599           5.069
    4           3.895           3.895           7.598
    5           5.186           5.186          10.119
    6           6.470           6.470          12.631
    7           7.746           7.746          15.130
    8           9.012           9.012          17.615
    9          10.267          10.267          20.084
   10          11.509          11.509          22.533
   11          12.737          12.737          24.961
   12          13.950          13.950          27.365
   13          15.145          15.145          29.743
   14          16.322          16.322          32.093
   15          17.479          17.479          34.413
   16          18.616          18.616          36.700
   17          19.730          19.730          38.952
   18          20.822          20.822          41.168
   19          21.889          21.889          43.345
   20          22.931          22.931          45.481
   21          23.948          23.948          47.575
   22          24.938          24.938          49.624
   23          25.900          25.900          51.627
   24          26.834          26.834          53.583
   25          27.740          27.740          55.488
   26          28.617          28.617          57.342
   27          29.465          29.465          59.143
   28          30.283          30.283          60.890
   29          31.072          31.072          62.581
   30          31.831          31.831          64.215
   31          32.560          32.560          65.791
   32          33.260          33.260          67.307
   33          33.931          33.931          68.762
   34          34.572          34.572          70.155
   35          35.186          35.186          71.486
   36          35.771          35.771          72.752
   37          36.330          36.330          73.955
   38          36.862          36.862          75.092
   39          37.368          37.368          76.163
   40          37.850          37.850          77.168
   41          38.307          38.307          78.106
   42          38.742          38.742          78.977
   43          39.156          39.156          79.779
   44          39.549          39.549          80.515
   45          39.923          39.923          81.182
   46          40.280          40.280          81.781
   47          40.619          40.619          82.312
   48          40.944          40.944          82.775
   49          41.255          41.255          83.170
   50          41.554          41.554          83.499
   51          41.843          41.843          83.760
   52          42.121          42.121          83.955
   53          42.392          42.392          84.085
   54          42.657          42.657          84.149
   55          42.916          42.916          84.149
   56          43.171          43.171          84.086
   57          43.424          43.424          83.960
   58          43.675          43.675          83.773
   59          43.926          43.926          83.526
   60          44.178          44.178          83.221
   61          44.431          44.431          82.858
   62          44.686          44.686          82.439
   63          44.945          44.945          81.967
   64          45.207          45.207          81.441
   65          45.473          45.473          80.866
   66          45.743          45.743          80.242
   67          46.018          46.018          79.571
   68          46.297          46.297          78.856
   69          46.581          46.581          78.100
   70          46.869          46.869          77.304
   71          47.162          47.162          76.472
   72          47.458          47.458          75.605
   73          47.757          47.757          74.708
   74          48.058          48.058          73.783
   75          48.361          48.361          72.833
   76          48.665          48.665          71.862
   77          48.969          48.969          70.873
   78          49.272          49.272          69.870
   79          49.573          49.573          68.857
   80          49.871          49.871          67.839
   81          50.166          50.166          66.818
   82          50.454          50.454          65.801
   83          50.737          50.737          64.791
   84          51.012          51.012          63.793
   85          51.279          51.279          62.812
   86          51.535          51.535          61.854
   87          51.781          51.781          60.923
   88          52.016          52.016          60.024
   89          52.237          52.237          59.164
   90          52.444          52.444          58.347
   91          52.637          52.637          57.579
   92          52.814          52.814          56.865
   93          52.975          52.975          56.211
   94          53.118          53.118          55.620
   95          53.244          53.244          55.097
   96          53.352          53.352          54.648
   97          53.440          53.440          54.275
   98          53.509          53.509          53.981
   99          53.559          53.559          53.769
  100          53.589          53.589          53.642
  101          53.599          53.599          53.599
  102          53.604          53.607          53.607
  103          53.620          53.632          53.632
  104          53.646          53.674          53.674
  105          53.681          53.732          53.732
  106          53.724          53.806          53.806
  107          53.775          53.895          53.895
  108          53.831          54.000          54.000
  109          53.890          54.119          54.119
  110          53.952          54.253          54.253
  111          54.013          54.400          54.400
  112          54.072          54.560          54.560
  113          54.126          54.732          54.732
  114          54.173          54.915          54.915
  115          54.211          55.108          55.108
  116          54.237          55.311          55.311
  117          54.248          55.523          55.523
  118          54.243          55.743          55.743
  119          54.219          55.969          55.969
  120          54.173          56.202          56.202
  121          54.105          56.440          56.440
  122          54.012          56.682          56.682
  123          53.892          56.928          56.928
  124          53.743          57.177          57.177
  125          53.566          57.427          57.427
  126          53.358          57.678          57.678
  127          53.119          57.930          57.930
  128          52.848          58.181          58.181
  129          52.545          58.432          58.432
  130          52.211          58.680          58.680
  131          51.845          58.926          58.926
  132          51.448          59.170          59.170
  133          51.022          59.410          59.410
  134          50.567          59.646          59.646
  135          50.085          59.878          59.878
  136          49.580          60.105          60.105
  137          49.051          60.327          60.327
  138          48.504          60.544          60.544
  139          47.940          60.755          60.755
  140          47.364          60.960          60.960
  141          46.778          61.158          61.158
  142          46.188          61.351          61.351
  143          45.598          61.537          61.537
  144          45.012          61.716          61.716
  145          44.436          61.888          61.888
  146          43.875          62.053          62.053
  147          43.334          62.211          62.211
  148          42.819          62.361          62.361
  149          42.337          62.504          62.504
  150          41.891          62.640          62.640
  151          41.489          62.769          62.769
  152          41.134          62.889          62.889
  153          40.833          63.002          63.002
  154          40.590          63.107          63.107
  155          40.409          63.204          63.204
  156          40.292          63.293          63.293
  157          40.244          63.374          63.374
  158          40.264          63.447          63.447
  159          40.355          63.510          63.510
  160          40.517          63.566          63.566
  161          40.748          63.612          63.612
  162          41.046          63.649          63.649
  163          41.410          63.677          63.677
  164          41.837          63.695          63.695
  165          42.322          63.703          63.703
  166          42.861          63.701          63.701
  167          43.449          63.689          63.689
  168          44.083          63.666          63.666
  169          44.756          63.632          63.632
  170          45.464          63.586          63.586
  171          46.202          63.529          63.529
  172          46.964          63.459          63.459
  173          47.746          63.377          63.377
  174          48.544          63.282          63.282
  175          49.352          63.174          63.174
  176          50.167          63.052          63.052
  177          50.985          62.917          62.917
  178          51.802          62.767          62.767
  179          52.616          62.603          62.603
  180          53.423          62.423          62.423
  181          54.221          62.229          62.229
  182          55.008          62.019          62.019
  183          55.782          61.793          61.793
  184          56.542          61.551          61.551
  185          57.286          61.293          61.293
  186          58.014          61.018          61.018
  187          58.725          60.727          60.727
  188          59.418          60.419          60.419
  189          60.094          60.094          60.094
  190          59.752          59.752          60.752
  191          59.393          59.393          61.394
  192          59.017          59.017          62.019
  193          58.623          58.623          62.628
  194          58.213          58.213          63.223
  195          57.786          57.786          63.804
  196          57.342          57.342          64.372
  197          56.882          56.882          64.928
  198          56.405          56.405          65.474
  199          55.912          55.912          66.011
  200          55.404          55.404          66.540
  201          54.879          54.879          67.063
  202          54.340          54.340          67.579
  203          53.785          53.785          68.091
  204          53.216          53.216          68.599
  205          52.634          52.634          69.103
  206          52.037          52.037          69.605
  207          51.428          51.428          70.105
  208          50.806          50.806          70.602
  209          50.172          50.172          71.097
  210          49.526          49.526          71.589
  211          48.870          48.870          72.078
  212          48.203          48.203          72.563
  213          47.527          47.527          73.043
  214          46.842          46.842          73.517
  215          46.148          46.148          73.983
  216          45.446          45.446          74.439
  217          44.736          44.736          74.883
  218          44.020          44.020          75.313
  219          43.298          43.298          75.727
  220          42.571          42.571          76.123
  221          41.838          41.838          76.496
  222          41.101          41.101          76.845
  223          40.361          40.361          77.167
  224          39.617          39.617          77.458
  225          38.870          38.870          77.715
  226          38.120          38.120          77.935
  227          37.369          37.369          78.114
  228          36.617          36.617          78.250
  229          35.863          35.863          78.339
  230          35.109          35.109          78.378
  231          34.354          34.354          78.364
  232          33.600          33.600          78.293
  233          32.845          32.845          78.162
  234          32.091          32.091          77.969
  235          31.338          31.338          77.711
  236          30.585          30.585          77.384
  237          29.834          29.834          76.988
  238          29.083          29.083          76.518
  239          28.334          28.334          75.973
  240          27.586          27.586          75.352
  241          26.839          26.839          74.651
  242          26.093          26.093          73.870
  243          25.349          25.349          73.007
  244          24.605          24.605          72.061
  245          23.863          23.863          71.031
  246          23.121          23.121          69.916
  247          22.380          22.380          68.716
  248          21.641          21.641          67.431
  249          20.901          20.901          66.061
  250          20.162          20.162          64.605
  251          19.423          19.423          63.064
  252          18.685          18.685          61.440
  253          17.946          17.946          59.732
  254          17.207          17.207          57.943
  255          16.468          16.468          56.073
  256          15.729          15.729          54.124
  257          14.989          14.989          52.098
  258          14.248          14.248          49.998
  259          13.507          13.507          47.825
  260          12.764          12.764          45.582
  261          12.021          12.021          43.272
  262          11.277          11.277          40.897
  263          10.531          10.531          38.461
  264           9.785           9.785          35.967
  265           9.037           9.037          33.418
  266           8.289           8.289          30.819
  267           7.539           7.539          28.172
  268           6.788           6.788          25.481
  269           6.037           6.037          22.751
  270           5.284           5.284          19.986
  271           4.531           4.531          17.189
  272           3.777           3.777          14.366
  273           3.022           3.022          11.520
  274           2.267           2.267           8.656
  275           1.512           1.512           5.778
  276           0.756           0.756           2.891
  277           0.000           0.000           0.000
  278           0.197           1.295           2.831
  279           0.399           2.588           5.659
  280           0.607           3.876           8.479
  281           0.827           5.157          11.287
  282           1.060           6.428          14.080
  283           1.309           7.688          16.855
  284           1.577           8.934          19.607
  285           1.865          10.163          22.333
  286           2.174          11.374          25.029
  287           2.506          12.565          27.692
  288           2.861          13.732          30.318
  289           3.239          14.875          32.905
  290           3.641          15.991          35.449
  291           4.067          17.077          37.946
  292           4.516          18.133          40.394
  293           4.987          19.157          42.790
  294           5.481          20.145          45.131
  295           5.997          21.098          47.415
  296           6.534          22.012          49.639
  297           7.091          22.887          51.801
  298           7.667          23.722          53.898
  299           8.261          24.514          55.929
  300           8.873          25.262          57.892
  301           9.500          25.966          59.785
  302          10.143          26.624          61.606
  303          10.799          27.235          63.355
  304          11.468          27.798          65.030
  305          12.149          28.313          66.630
  306          12.839          28.778          68.155
  307          13.539          29.194          69.604
  308          14.245          29.560          70.976
  309          14.958          29.875          72.273
  310          15.676          30.140          73.493
  311          16.396          30.354          74.637
  312          17.119          30.517          75.706
  313          17.843          30.630          76.700
  314          18.565          30.692          77.620
  315          19.285          30.705          78.468
  316          20.002          30.669          79.245
  317          20.714          30.585          79.952
  318          21.419          30.454          80.592
  319          22.116          30.276          81.165
  320          22.804          30.053          81.676
  321          23.482          29.786          82.125
  322          24.148          29.478          82.515
  323          24.801          29.129          82.850
  324          25.440          28.742          83.131
  325          26.063          28.319          83.363
  326          26.669          27.862          83.548
  327          27.257          27.373          83.689
  328          26.857          27.826          83.791
  329          26.315          28.375          83.856
  330          25.751          28.902          83.888
  331          25.169          29.407          83.891
  332          24.573          29.889          83.869
  333          23.967          30.346          83.825
  334          23.355          30.778          83.762
  335          22.744          31.184          83.686
  336          22.138          31.564          83.598
  337          21.544          31.916          83.503
  338          20.967          32.239          83.403
  339          20.414          32.534          83.303
  340          19.893          32.799          83.204
  341          19.410          33.034          83.111
  342          18.972          33.239          83.024
  343          18.587          33.413          82.947
  344          18.261          33.556          82.881
  345          18.001          33.667          82.828
  346          17.811          33.747          82.789
  347          17.696          33.795          82.766
  348          17.657          33.811          82.758
